Study Name	VanadiumIrradiated_V3plus
Sample Name	2022-01-04
Run Name	unirradiated_15
Operator	Angus
Date	1/4/2022
Time	13:59
Sign	FIX
Grating Spacing	06.40um
Channel	3
Number Traces	10000
Files in Batch	1
Batch Number	1
dt	50.000001E-12
time stamp (ms)	13:59:42
	
Time	Amplitude
0.000000E+0	-4.419426E-4
5.000000E-11	-4.333778E-4
1.000000E-10	-4.059706E-4
1.500000E-10	-4.008318E-4
2.000000E-10	-4.145354E-4
2.500000E-10	-4.487944E-4
3.000000E-10	-5.121735E-4
3.500000E-10	-6.320801E-4
4.000000E-10	-7.228664E-4
4.500000E-10	-8.102269E-4
5.000000E-10	-9.061521E-4
5.500000E-10	-9.780960E-4
6.000000E-10	-1.015781E-3
6.500000E-10	-1.024346E-3
7.000000E-10	-9.986514E-4
7.500000E-10	-9.541147E-4
8.000000E-10	-8.941614E-4
8.500000E-10	-8.016621E-4
9.000000E-10	-7.228664E-4
9.500000E-10	-6.252283E-4
1.000000E-9	-5.549973E-4
1.050000E-9	-4.659239E-4
1.100000E-9	-3.956929E-4
1.150000E-9	-3.614339E-4
1.200000E-9	-3.425915E-4
1.250000E-9	-3.374526E-4
1.300000E-9	-3.562951E-4
1.350000E-9	-3.991188E-4
1.400000E-9	-4.864793E-4
1.450000E-9	-5.498585E-4
1.500000E-9	-6.303671E-4
1.550000E-9	-6.903204E-4
1.600000E-9	-7.588384E-4
1.650000E-9	-7.571254E-4
1.700000E-9	-7.656902E-4
1.750000E-9	-7.691161E-4
1.800000E-9	-7.434218E-4
1.850000E-9	-7.074499E-4
1.900000E-9	-6.423578E-4
1.950000E-9	-5.464326E-4
2.000000E-9	-4.607850E-4
2.050000E-9	-3.631469E-4
2.100000E-9	-2.980548E-4
2.150000E-9	-2.518051E-4
2.200000E-9	-2.432404E-4
2.250000E-9	-2.535181E-4
2.300000E-9	-3.031936E-4
2.350000E-9	-3.425915E-4
2.400000E-9	-4.145354E-4
2.450000E-9	-4.984699E-4
2.500000E-9	-5.652750E-4
2.550000E-9	-6.218024E-4
2.600000E-9	-6.800427E-4
2.650000E-9	-7.365700E-4
2.700000E-9	-7.382830E-4
2.750000E-9	-7.211535E-4
2.800000E-9	-7.228664E-4
2.850000E-9	-7.057369E-4
2.900000E-9	-6.680520E-4
2.950000E-9	-6.235153E-4
3.000000E-9	-5.909693E-4
3.050000E-9	-5.652750E-4
3.100000E-9	-5.395808E-4
3.150000E-9	-4.916181E-4
3.200000E-9	-4.282390E-4
3.250000E-9	-3.665728E-4
3.300000E-9	-2.723605E-4
3.350000E-9	-2.021296E-4
3.400000E-9	-1.404634E-4
3.450000E-9	-9.421374E-5
3.500000E-9	-8.051014E-5
3.550000E-9	-1.199080E-4
3.600000E-9	-1.832871E-4
3.650000E-9	-2.518051E-4
3.700000E-9	-3.271749E-4
3.750000E-9	-4.727757E-4
3.800000E-9	-6.132376E-4
3.850000E-9	-7.177276E-4
3.900000E-9	-8.170787E-4
3.950000E-9	-9.095780E-4
4.000000E-9	-1.000364E-3
4.050000E-9	-1.051753E-3
4.100000E-9	-1.074021E-3
4.150000E-9	-1.026059E-3
4.200000E-9	-9.575406E-4
4.250000E-9	-8.581895E-4
4.300000E-9	-7.143017E-4
4.350000E-9	-5.498585E-4
4.400000E-9	-4.487944E-4
4.450000E-9	-3.425915E-4
4.500000E-9	-2.740735E-4
4.550000E-9	-2.569440E-4
4.600000E-9	-2.672217E-4
4.650000E-9	-2.500922E-4
4.700000E-9	-2.894900E-4
4.750000E-9	-3.117584E-4
4.800000E-9	-3.237490E-4
4.850000E-9	-3.271749E-4
4.900000E-9	-3.511562E-4
4.950000E-9	-3.871282E-4
5.000000E-9	-3.991188E-4
5.050000E-9	-4.316649E-4
5.100000E-9	-4.333778E-4
5.150000E-9	-4.470814E-4
5.200000E-9	-4.487944E-4
5.250000E-9	-4.796275E-4
5.300000E-9	-4.779145E-4
5.350000E-9	-4.916181E-4
5.400000E-9	-5.310160E-4
5.450000E-9	-5.926822E-4
5.500000E-9	-6.218024E-4
5.550000E-9	-6.646261E-4
5.600000E-9	-7.245794E-4
5.650000E-9	-7.930974E-4
5.700000E-9	-8.393470E-4
5.750000E-9	-8.736060E-4
5.800000E-9	-9.198557E-4
5.850000E-9	-9.318463E-4
5.900000E-9	-9.061521E-4
5.950000E-9	-8.770319E-4
6.000000E-9	-8.564765E-4
6.050000E-9	-8.016621E-4
6.100000E-9	-7.536995E-4
6.150000E-9	-6.971722E-4
6.200000E-9	-6.115247E-4
6.250000E-9	-5.190253E-4
6.300000E-9	-4.231001E-4
6.350000E-9	-3.597210E-4
6.400000E-9	-2.346756E-4
6.450000E-9	-6.851949E-5
6.500000E-9	1.610158E-4
6.550000E-9	5.378648E-4
6.600000E-9	1.123694E-3
6.650000E-9	1.971604E-3
6.700000E-9	3.167243E-3
6.750000E-9	4.803110E-3
6.800000E-9	6.882632E-3
6.850000E-9	9.515436E-3
6.900000E-9	1.267069E-2
6.950000E-9	1.627131E-2
7.000000E-9	2.025906E-2
7.050000E-9	2.446264E-2
7.100000E-9	2.867307E-2
7.150000E-9	3.278244E-2
7.200000E-9	3.657491E-2
7.250000E-9	3.987748E-2
7.300000E-9	4.264046E-2
7.350000E-9	4.480392E-2
7.400000E-9	4.636442E-2
7.450000E-9	4.728598E-2
7.500000E-9	4.771251E-2
7.550000E-9	4.761658E-2
7.600000E-9	4.726372E-2
7.650000E-9	4.677381E-2
7.700000E-9	4.630789E-2
7.750000E-9	4.599271E-2
7.800000E-9	4.587623E-2
7.850000E-9	4.605609E-2
7.900000E-9	4.660423E-2
7.950000E-9	4.745385E-2
8.000000E-9	4.847991E-2
8.050000E-9	4.963444E-2
8.100000E-9	5.080952E-2
8.150000E-9	5.181331E-2
8.200000E-9	5.258585E-2
8.250000E-9	5.307918E-2
8.300000E-9	5.321450E-2
8.350000E-9	5.299011E-2
8.400000E-9	5.246423E-2
8.450000E-9	5.159748E-2
8.500000E-9	5.041383E-2
8.550000E-9	4.899551E-2
8.600000E-9	4.735279E-2
8.650000E-9	4.563984E-2
8.700000E-9	4.389777E-2
8.750000E-9	4.209061E-2
8.800000E-9	4.033655E-2
8.850000E-9	3.862531E-2
8.900000E-9	3.709051E-2
8.950000E-9	3.556941E-2
9.000000E-9	3.418877E-2
9.050000E-9	3.306679E-2
9.100000E-9	3.202017E-2
9.150000E-9	3.113115E-2
9.200000E-9	3.036889E-2
9.250000E-9	2.978820E-2
9.300000E-9	2.934797E-2
9.350000E-9	2.902936E-2
9.400000E-9	2.880154E-2
9.450000E-9	2.868849E-2
9.500000E-9	2.867478E-2
9.550000E-9	2.871075E-2
9.600000E-9	2.883066E-2
9.650000E-9	2.900538E-2
9.700000E-9	2.916982E-2
9.750000E-9	2.937709E-2
9.800000E-9	2.963917E-2
9.850000E-9	2.996463E-2
9.900000E-9	3.032607E-2
9.950000E-9	3.075944E-2
1.000000E-8	3.128703E-2
1.005000E-8	3.191568E-2
1.010000E-8	3.263512E-2
1.015000E-8	3.354127E-2
1.020000E-8	3.455705E-2
1.025000E-8	3.568931E-2
1.030000E-8	3.687981E-2
1.035000E-8	3.812513E-2
1.040000E-8	3.935331E-2
1.045000E-8	4.057293E-2
1.050000E-8	4.167607E-2
1.055000E-8	4.263019E-2
1.060000E-8	4.343185E-2
1.065000E-8	4.406221E-2
1.070000E-8	4.449901E-2
1.075000E-8	4.470971E-2
1.080000E-8	4.469258E-2
1.085000E-8	4.443735E-2
1.090000E-8	4.401425E-2
1.095000E-8	4.340273E-2
1.100000E-8	4.259935E-2
1.105000E-8	4.169149E-2
1.110000E-8	4.073738E-2
1.115000E-8	3.977641E-2
1.120000E-8	3.877605E-2
1.125000E-8	3.775856E-2
1.130000E-8	3.675305E-2
1.135000E-8	3.576126E-2
1.140000E-8	3.469238E-2
1.145000E-8	3.366118E-2
1.150000E-8	3.267795E-2
1.155000E-8	3.171013E-2
1.160000E-8	3.079199E-2
1.165000E-8	2.993894E-2
1.170000E-8	2.919552E-2
1.175000E-8	2.844182E-2
1.180000E-8	2.772581E-2
1.185000E-8	2.709373E-2
1.190000E-8	2.654901E-2
1.195000E-8	2.602485E-2
1.200000E-8	2.566342E-2
1.205000E-8	2.542703E-2
1.210000E-8	2.528828E-2
1.215000E-8	2.528828E-2
1.220000E-8	2.538763E-2
1.225000E-8	2.562573E-2
1.230000E-8	2.599059E-2
1.235000E-8	2.653873E-2
1.240000E-8	2.722220E-2
1.245000E-8	2.802044E-2
1.250000E-8	2.890089E-2
1.255000E-8	2.984644E-2
1.260000E-8	3.088449E-2
1.265000E-8	3.193453E-2
1.270000E-8	3.298628E-2
1.275000E-8	3.405687E-2
1.280000E-8	3.504182E-2
1.285000E-8	3.603362E-2
1.290000E-8	3.694833E-2
1.295000E-8	3.773800E-2
1.300000E-8	3.847286E-2
1.305000E-8	3.911693E-2
1.310000E-8	3.966164E-2
1.315000E-8	4.003335E-2
1.320000E-8	4.028344E-2
1.325000E-8	4.039650E-2
1.330000E-8	4.046502E-2
1.335000E-8	4.038622E-2
1.340000E-8	4.020979E-2
1.345000E-8	3.991002E-2
1.350000E-8	3.951090E-2
1.355000E-8	3.901415E-2
1.360000E-8	3.842147E-2
1.365000E-8	3.775856E-2
1.370000E-8	3.705625E-2
1.375000E-8	3.627857E-2
1.380000E-8	3.539982E-2
1.385000E-8	3.449539E-2
1.390000E-8	3.359609E-2
1.395000E-8	3.272762E-2
1.400000E-8	3.179578E-2
1.405000E-8	3.084852E-2
1.410000E-8	2.988584E-2
1.415000E-8	2.889918E-2
1.420000E-8	2.789882E-2
1.425000E-8	2.694642E-2
1.430000E-8	2.604712E-2
1.435000E-8	2.517865E-2
1.440000E-8	2.442153E-2
1.445000E-8	2.380144E-2
1.450000E-8	2.336292E-2
1.455000E-8	2.302890E-2
1.460000E-8	2.285932E-2
1.465000E-8	2.287816E-2
1.470000E-8	2.300149E-2
1.475000E-8	2.322589E-2
1.480000E-8	2.357190E-2
1.485000E-8	2.406352E-2
1.490000E-8	2.463051E-2
1.495000E-8	2.528143E-2
1.500000E-8	2.598888E-2
1.505000E-8	2.679396E-2
1.510000E-8	2.764873E-2
1.515000E-8	2.849835E-2
1.520000E-8	2.941478E-2
1.525000E-8	3.029009E-2
1.530000E-8	3.113115E-2
1.535000E-8	3.200133E-2
1.540000E-8	3.286637E-2
1.545000E-8	3.370229E-2
1.550000E-8	3.451937E-2
1.555000E-8	3.529705E-2
1.560000E-8	3.598051E-2
1.565000E-8	3.655264E-2
1.570000E-8	3.700828E-2
1.575000E-8	3.735601E-2
1.580000E-8	3.758212E-2
1.585000E-8	3.773458E-2
1.590000E-8	3.778939E-2
1.595000E-8	3.767976E-2
1.600000E-8	3.747935E-2
1.605000E-8	3.715731E-2
1.610000E-8	3.670681E-2
1.615000E-8	3.619463E-2
1.620000E-8	3.553001E-2
1.625000E-8	3.481913E-2
1.630000E-8	3.403118E-2
1.635000E-8	3.309591E-2
1.640000E-8	3.211267E-2
1.645000E-8	3.111060E-2
1.650000E-8	3.004514E-2
1.655000E-8	2.896085E-2
1.660000E-8	2.786627E-2
1.665000E-8	2.676484E-2
1.670000E-8	2.569425E-2
1.675000E-8	2.468875E-2
1.680000E-8	2.377746E-2
1.685000E-8	2.293811E-2
1.690000E-8	2.226150E-2
1.695000E-8	2.170650E-2
1.700000E-8	2.124914E-2
1.705000E-8	2.093910E-2
1.710000E-8	2.078151E-2
1.715000E-8	2.075753E-2
1.720000E-8	2.086544E-2
1.725000E-8	2.105558E-2
1.730000E-8	2.139474E-2
1.735000E-8	2.181270E-2
1.740000E-8	2.233344E-2
1.745000E-8	2.298608E-2
1.750000E-8	2.372093E-2
1.755000E-8	2.449518E-2
1.760000E-8	2.534481E-2
1.765000E-8	2.627665E-2
1.770000E-8	2.722220E-2
1.775000E-8	2.819858E-2
1.780000E-8	2.921779E-2
1.785000E-8	3.020959E-2
1.790000E-8	3.122023E-2
1.795000E-8	3.216749E-2
1.800000E-8	3.304623E-2
1.805000E-8	3.387530E-2
1.810000E-8	3.458960E-2
1.815000E-8	3.520112E-2
1.820000E-8	3.568417E-2
1.825000E-8	3.606959E-2
1.830000E-8	3.636079E-2
1.835000E-8	3.649097E-2
1.840000E-8	3.648070E-2
1.845000E-8	3.639676E-2
1.850000E-8	3.618264E-2
1.855000E-8	3.578353E-2
1.860000E-8	3.530904E-2
1.865000E-8	3.475233E-2
1.870000E-8	3.411340E-2
1.875000E-8	3.335970E-2
1.880000E-8	3.254776E-2
1.885000E-8	3.166731E-2
1.890000E-8	3.071319E-2
1.895000E-8	2.971112E-2
1.900000E-8	2.869020E-2
1.905000E-8	2.766585E-2
1.910000E-8	2.666207E-2
1.915000E-8	2.569254E-2
1.920000E-8	2.474185E-2
1.925000E-8	2.382028E-2
1.930000E-8	2.298265E-2
1.935000E-8	2.225293E-2
1.940000E-8	2.161743E-2
1.945000E-8	2.106928E-2
1.950000E-8	2.065132E-2
1.955000E-8	2.037211E-2
1.960000E-8	2.019397E-2
1.965000E-8	2.014943E-2
1.970000E-8	2.020082E-2
1.975000E-8	2.030188E-2
1.980000E-8	2.050915E-2
1.985000E-8	2.077466E-2
1.990000E-8	2.114123E-2
1.995000E-8	2.155576E-2
2.000000E-8	2.206622E-2
2.005000E-8	2.265719E-2
2.010000E-8	2.333209E-2
2.015000E-8	2.408065E-2
2.020000E-8	2.489259E-2
2.025000E-8	2.576619E-2
2.030000E-8	2.665864E-2
2.035000E-8	2.758535E-2
2.040000E-8	2.851205E-2
2.045000E-8	2.947987E-2
2.050000E-8	3.042542E-2
2.055000E-8	3.129902E-2
2.060000E-8	3.204758E-2
2.065000E-8	3.267109E-2
2.070000E-8	3.320382E-2
2.075000E-8	3.358067E-2
2.080000E-8	3.387701E-2
2.085000E-8	3.405687E-2
2.090000E-8	3.410312E-2
2.095000E-8	3.403460E-2
2.100000E-8	3.383933E-2
2.105000E-8	3.352243E-2
2.110000E-8	3.314901E-2
2.115000E-8	3.265225E-2
2.120000E-8	3.209383E-2
2.125000E-8	3.148059E-2
2.130000E-8	3.083481E-2
2.135000E-8	3.007769E-2
2.140000E-8	2.925547E-2
2.145000E-8	2.834418E-2
2.150000E-8	2.737294E-2
2.155000E-8	2.633489E-2
2.160000E-8	2.525402E-2
2.165000E-8	2.415602E-2
2.170000E-8	2.310084E-2
2.175000E-8	2.206965E-2
2.180000E-8	2.114979E-2
2.185000E-8	2.032586E-2
2.190000E-8	1.960300E-2
2.195000E-8	1.898805E-2
2.200000E-8	1.850671E-2
2.205000E-8	1.813843E-2
2.210000E-8	1.793630E-2
2.215000E-8	1.783352E-2
2.220000E-8	1.784209E-2
2.225000E-8	1.796028E-2
2.230000E-8	1.816069E-2
2.235000E-8	1.847245E-2
2.240000E-8	1.885101E-2
2.245000E-8	1.934263E-2
2.250000E-8	1.997128E-2
2.255000E-8	2.069415E-2
2.260000E-8	2.149067E-2
2.265000E-8	2.238483E-2
2.270000E-8	2.331496E-2
2.275000E-8	2.428449E-2
2.280000E-8	2.526259E-2
2.285000E-8	2.622355E-2
2.290000E-8	2.719137E-2
2.295000E-8	2.807525E-2
2.300000E-8	2.887862E-2
2.305000E-8	2.957579E-2
2.310000E-8	3.020787E-2
2.315000E-8	3.078856E-2
2.320000E-8	3.126305E-2
2.325000E-8	3.164846E-2
2.330000E-8	3.199791E-2
2.335000E-8	3.220689E-2
2.340000E-8	3.230281E-2
2.345000E-8	3.235934E-2
2.350000E-8	3.232337E-2
2.355000E-8	3.220175E-2
2.360000E-8	3.197564E-2
2.365000E-8	3.169643E-2
2.370000E-8	3.129731E-2
2.375000E-8	3.084852E-2
2.380000E-8	3.027982E-2
2.385000E-8	2.963575E-2
2.390000E-8	2.887348E-2
2.395000E-8	2.800673E-2
2.400000E-8	2.703035E-2
2.405000E-8	2.600429E-2
2.410000E-8	2.495768E-2
2.415000E-8	2.385625E-2
2.420000E-8	2.276682E-2
2.425000E-8	2.173905E-2
2.430000E-8	2.078836E-2
2.435000E-8	1.986508E-2
2.440000E-8	1.903430E-2
2.445000E-8	1.833370E-2
2.450000E-8	1.775301E-2
2.455000E-8	1.733163E-2
2.460000E-8	1.702501E-2
2.465000E-8	1.687598E-2
2.470000E-8	1.687084E-2
2.475000E-8	1.699931E-2
2.480000E-8	1.725797E-2
2.485000E-8	1.762112E-2
2.490000E-8	1.809560E-2
2.495000E-8	1.866088E-2
2.500000E-8	1.929638E-2
2.505000E-8	1.999355E-2
2.510000E-8	2.072669E-2
2.515000E-8	2.152835E-2
2.520000E-8	2.235742E-2
2.525000E-8	2.318306E-2
2.530000E-8	2.404639E-2
2.535000E-8	2.488916E-2
2.540000E-8	2.570967E-2
2.545000E-8	2.648221E-2
2.550000E-8	2.724961E-2
2.555000E-8	2.797247E-2
2.560000E-8	2.866793E-2
2.565000E-8	2.928117E-2
2.570000E-8	2.988413E-2
2.575000E-8	3.037232E-2
2.580000E-8	3.078342E-2
2.585000E-8	3.110203E-2
2.590000E-8	3.134185E-2
2.595000E-8	3.150458E-2
2.600000E-8	3.153712E-2
2.605000E-8	3.143948E-2
2.610000E-8	3.126305E-2
2.615000E-8	3.096328E-2
2.620000E-8	3.052477E-2
2.625000E-8	3.001431E-2
2.630000E-8	2.938908E-2
2.635000E-8	2.862511E-2
2.640000E-8	2.777720E-2
2.645000E-8	2.685734E-2
2.650000E-8	2.589638E-2
2.655000E-8	2.489601E-2
2.660000E-8	2.384426E-2
2.665000E-8	2.278737E-2
2.670000E-8	2.174419E-2
2.675000E-8	2.075924E-2
2.680000E-8	1.975374E-2
2.685000E-8	1.882703E-2
2.690000E-8	1.805792E-2
2.695000E-8	1.737788E-2
2.700000E-8	1.688455E-2
2.705000E-8	1.645460E-2
2.710000E-8	1.621478E-2
2.715000E-8	1.607432E-2
2.720000E-8	1.601779E-2
2.725000E-8	1.608803E-2
2.730000E-8	1.624219E-2
2.735000E-8	1.648714E-2
2.740000E-8	1.680918E-2
2.745000E-8	1.720316E-2
2.750000E-8	1.763482E-2
2.755000E-8	1.814014E-2
2.760000E-8	1.869171E-2
2.765000E-8	1.934434E-2
2.770000E-8	2.007577E-2
2.775000E-8	2.086887E-2
2.780000E-8	2.171678E-2
2.785000E-8	2.261950E-2
2.790000E-8	2.352052E-2
2.795000E-8	2.443866E-2
2.800000E-8	2.530541E-2
2.805000E-8	2.612934E-2
2.810000E-8	2.688646E-2
2.815000E-8	2.762988E-2
2.820000E-8	2.827738E-2
2.825000E-8	2.882381E-2
2.830000E-8	2.933084E-2
2.835000E-8	2.971797E-2
2.840000E-8	2.994237E-2
2.845000E-8	3.006912E-2
2.850000E-8	3.006398E-2
2.855000E-8	2.995093E-2
2.860000E-8	2.972311E-2
2.865000E-8	2.934283E-2
2.870000E-8	2.884265E-2
2.875000E-8	2.824997E-2
2.880000E-8	2.754937E-2
2.885000E-8	2.679910E-2
2.890000E-8	2.602485E-2
2.895000E-8	2.523175E-2
2.900000E-8	2.434958E-2
2.905000E-8	2.349482E-2
2.910000E-8	2.265548E-2
2.915000E-8	2.183669E-2
2.920000E-8	2.101790E-2
2.925000E-8	2.026762E-2
2.930000E-8	1.951906E-2
2.935000E-8	1.876708E-2
2.940000E-8	1.803736E-2
2.945000E-8	1.738473E-2
2.950000E-8	1.678520E-2
2.955000E-8	1.621821E-2
2.960000E-8	1.579340E-2
2.965000E-8	1.548678E-2
2.970000E-8	1.531891E-2
2.975000E-8	1.527951E-2
2.980000E-8	1.537715E-2
2.985000E-8	1.560840E-2
2.990000E-8	1.598867E-2
2.995000E-8	1.650427E-2
3.000000E-8	1.707640E-2
3.005000E-8	1.774959E-2
3.010000E-8	1.847245E-2
3.015000E-8	1.923643E-2
3.020000E-8	2.004323E-2
3.025000E-8	2.087401E-2
3.030000E-8	2.169109E-2
3.035000E-8	2.252872E-2
3.040000E-8	2.337663E-2
3.045000E-8	2.419542E-2
3.050000E-8	2.497481E-2
3.055000E-8	2.570624E-2
3.060000E-8	2.638628E-2
3.065000E-8	2.700123E-2
3.070000E-8	2.755623E-2
3.075000E-8	2.802044E-2
3.080000E-8	2.838701E-2
3.085000E-8	2.860969E-2
3.090000E-8	2.875015E-2
3.095000E-8	2.878441E-2
3.100000E-8	2.871247E-2
3.105000E-8	2.853432E-2
3.110000E-8	2.827395E-2
3.115000E-8	2.797932E-2
3.120000E-8	2.757336E-2
3.125000E-8	2.711771E-2
3.130000E-8	2.661753E-2
3.135000E-8	2.603513E-2
3.140000E-8	2.538934E-2
3.145000E-8	2.469731E-2
3.150000E-8	2.388366E-2
3.155000E-8	2.305973E-2
3.160000E-8	2.219812E-2
3.165000E-8	2.129025E-2
3.170000E-8	2.038924E-2
3.175000E-8	1.948652E-2
3.180000E-8	1.860949E-2
3.185000E-8	1.775644E-2
3.190000E-8	1.698047E-2
3.195000E-8	1.626789E-2
3.200000E-8	1.562724E-2
3.205000E-8	1.518530E-2
3.210000E-8	1.488382E-2
3.215000E-8	1.468855E-2
3.220000E-8	1.459605E-2
3.225000E-8	1.463887E-2
3.230000E-8	1.479817E-2
3.235000E-8	1.499688E-2
3.240000E-8	1.530692E-2
3.245000E-8	1.568377E-2
3.250000E-8	1.609659E-2
3.255000E-8	1.656251E-2
3.260000E-8	1.709010E-2
3.265000E-8	1.764510E-2
3.270000E-8	1.827204E-2
3.275000E-8	1.893152E-2
3.280000E-8	1.959615E-2
3.285000E-8	2.038582E-2
3.290000E-8	2.119947E-2
3.295000E-8	2.199085E-2
3.300000E-8	2.277710E-2
3.305000E-8	2.355991E-2
3.310000E-8	2.429648E-2
3.315000E-8	2.497652E-2
3.320000E-8	2.555550E-2
3.325000E-8	2.605739E-2
3.330000E-8	2.647535E-2
3.335000E-8	2.681281E-2
3.340000E-8	2.701836E-2
3.345000E-8	2.717766E-2
3.350000E-8	2.722905E-2
3.355000E-8	2.715882E-2
3.360000E-8	2.701151E-2
3.365000E-8	2.678369E-2
3.370000E-8	2.647193E-2
3.375000E-8	2.604027E-2
3.380000E-8	2.558976E-2
3.385000E-8	2.506902E-2
3.390000E-8	2.449176E-2
3.395000E-8	2.382542E-2
3.400000E-8	2.308543E-2
3.405000E-8	2.230603E-2
3.410000E-8	2.147183E-2
3.415000E-8	2.057082E-2
3.420000E-8	1.967323E-2
3.425000E-8	1.878250E-2
3.430000E-8	1.793801E-2
3.435000E-8	1.716547E-2
3.440000E-8	1.646145E-2
3.445000E-8	1.584479E-2
3.450000E-8	1.537201E-2
3.455000E-8	1.503799E-2
3.460000E-8	1.478104E-2
3.465000E-8	1.463373E-2
3.470000E-8	1.462174E-2
3.475000E-8	1.470225E-2
3.480000E-8	1.486155E-2
3.485000E-8	1.511678E-2
3.490000E-8	1.544224E-2
3.495000E-8	1.579682E-2
3.500000E-8	1.624048E-2
3.505000E-8	1.672010E-2
3.510000E-8	1.723056E-2
3.515000E-8	1.780440E-2
3.520000E-8	1.834227E-2
3.525000E-8	1.891439E-2
3.530000E-8	1.953791E-2
3.535000E-8	2.015457E-2
3.540000E-8	2.081919E-2
3.545000E-8	2.147011E-2
3.550000E-8	2.216215E-2
3.555000E-8	2.283705E-2
3.560000E-8	2.347255E-2
3.565000E-8	2.406181E-2
3.570000E-8	2.458083E-2
3.575000E-8	2.502620E-2
3.580000E-8	2.543217E-2
3.585000E-8	2.574564E-2
3.590000E-8	2.595462E-2
3.595000E-8	2.609851E-2
3.600000E-8	2.614133E-2
3.605000E-8	2.606425E-2
3.610000E-8	2.588439E-2
3.615000E-8	2.558633E-2
3.620000E-8	2.518722E-2
3.625000E-8	2.468532E-2
3.630000E-8	2.413375E-2
3.635000E-8	2.347084E-2
3.640000E-8	2.277196E-2
3.645000E-8	2.204053E-2
3.650000E-8	2.132794E-2
3.655000E-8	2.058623E-2
3.660000E-8	1.986165E-2
3.665000E-8	1.920217E-2
3.670000E-8	1.859578E-2
3.675000E-8	1.801509E-2
3.680000E-8	1.750464E-2
3.685000E-8	1.701302E-2
3.690000E-8	1.654881E-2
3.695000E-8	1.612228E-2
3.700000E-8	1.573516E-2
3.705000E-8	1.535660E-2
3.710000E-8	1.500202E-2
3.715000E-8	1.468512E-2
3.720000E-8	1.443160E-2
3.725000E-8	1.428600E-2
3.730000E-8	1.422776E-2
3.735000E-8	1.425346E-2
3.740000E-8	1.436994E-2
3.745000E-8	1.456864E-2
3.750000E-8	1.487183E-2
3.755000E-8	1.524354E-2
3.760000E-8	1.570604E-2
3.765000E-8	1.617710E-2
3.770000E-8	1.674580E-2
3.775000E-8	1.735218E-2
3.780000E-8	1.797570E-2
3.785000E-8	1.858551E-2
3.790000E-8	1.923985E-2
3.795000E-8	1.992503E-2
3.800000E-8	2.060336E-2
3.805000E-8	2.130396E-2
3.810000E-8	2.202511E-2
3.815000E-8	2.275825E-2
3.820000E-8	2.341431E-2
3.825000E-8	2.400699E-2
3.830000E-8	2.452602E-2
3.835000E-8	2.493199E-2
3.840000E-8	2.524888E-2
3.845000E-8	2.543731E-2
3.850000E-8	2.550925E-2
3.855000E-8	2.545786E-2
3.860000E-8	2.527800E-2
3.865000E-8	2.500393E-2
3.870000E-8	2.459454E-2
3.875000E-8	2.411148E-2
3.880000E-8	2.356505E-2
3.885000E-8	2.300663E-2
3.890000E-8	2.239339E-2
3.895000E-8	2.174761E-2
3.900000E-8	2.111382E-2
3.905000E-8	2.046119E-2
3.910000E-8	1.979314E-2
3.915000E-8	1.913365E-2
3.920000E-8	1.849643E-2
3.925000E-8	1.785750E-2
3.930000E-8	1.723228E-2
3.935000E-8	1.664645E-2
3.940000E-8	1.610687E-2
3.945000E-8	1.557243E-2
3.950000E-8	1.507567E-2
3.955000E-8	1.464915E-2
3.960000E-8	1.431512E-2
3.965000E-8	1.405475E-2
3.970000E-8	1.391943E-2
3.975000E-8	1.386976E-2
3.980000E-8	1.387147E-2
3.985000E-8	1.399309E-2
3.990000E-8	1.419008E-2
3.995000E-8	1.445558E-2
4.000000E-8	1.476905E-2
4.005000E-8	1.513220E-2
4.010000E-8	1.555530E-2
4.015000E-8	1.600409E-2
4.020000E-8	1.647344E-2
4.025000E-8	1.698732E-2
4.030000E-8	1.753376E-2
4.035000E-8	1.812301E-2
4.040000E-8	1.879620E-2
4.045000E-8	1.948481E-2
4.050000E-8	2.016999E-2
4.055000E-8	2.082947E-2
4.060000E-8	2.142558E-2
4.065000E-8	2.196344E-2
4.070000E-8	2.249446E-2
4.075000E-8	2.293983E-2
4.080000E-8	2.325501E-2
4.085000E-8	2.350853E-2
4.090000E-8	2.363528E-2
4.095000E-8	2.365413E-2
4.100000E-8	2.358218E-2
4.105000E-8	2.347598E-2
4.110000E-8	2.334579E-2
4.115000E-8	2.316422E-2
4.120000E-8	2.295182E-2
4.125000E-8	2.268460E-2
4.130000E-8	2.235914E-2
4.135000E-8	2.198914E-2
4.140000E-8	2.156947E-2
4.145000E-8	2.106072E-2
4.150000E-8	2.049202E-2
4.155000E-8	1.982054E-2
4.160000E-8	1.907370E-2
4.165000E-8	1.833199E-2
4.170000E-8	1.759371E-2
4.175000E-8	1.686057E-2
4.180000E-8	1.616340E-2
4.185000E-8	1.557414E-2
4.190000E-8	1.507396E-2
4.195000E-8	1.464915E-2
4.200000E-8	1.428600E-2
4.205000E-8	1.401364E-2
4.210000E-8	1.377897E-2
4.215000E-8	1.358712E-2
4.220000E-8	1.344323E-2
4.225000E-8	1.337300E-2
4.230000E-8	1.337471E-2
4.235000E-8	1.337814E-2
4.240000E-8	1.347920E-2
4.245000E-8	1.365564E-2
4.250000E-8	1.387318E-2
4.255000E-8	1.414383E-2
4.260000E-8	1.451211E-2
4.265000E-8	1.494720E-2
4.270000E-8	1.545766E-2
4.275000E-8	1.604006E-2
4.280000E-8	1.664302E-2
4.285000E-8	1.723228E-2
4.290000E-8	1.783181E-2
4.295000E-8	1.841764E-2
4.300000E-8	1.899661E-2
4.305000E-8	1.950365E-2
4.310000E-8	1.996614E-2
4.315000E-8	2.038068E-2
4.320000E-8	2.072156E-2
4.325000E-8	2.100933E-2
4.330000E-8	2.124914E-2
4.335000E-8	2.144442E-2
4.340000E-8	2.156090E-2
4.345000E-8	2.162599E-2
4.350000E-8	2.167224E-2
4.355000E-8	2.165340E-2
4.360000E-8	2.161914E-2
4.365000E-8	2.156090E-2
4.370000E-8	2.142900E-2
4.375000E-8	2.124572E-2
4.380000E-8	2.104702E-2
4.385000E-8	2.079350E-2
4.390000E-8	2.049031E-2
4.395000E-8	2.007063E-2
4.400000E-8	1.961670E-2
4.405000E-8	1.906513E-2
4.410000E-8	1.849472E-2
4.415000E-8	1.787121E-2
4.420000E-8	1.720658E-2
4.425000E-8	1.651112E-2
4.430000E-8	1.581395E-2
4.435000E-8	1.516646E-2
4.440000E-8	1.455322E-2
4.445000E-8	1.403762E-2
4.450000E-8	1.362652E-2
4.455000E-8	1.331990E-2
4.460000E-8	1.307495E-2
4.465000E-8	1.294648E-2
4.470000E-8	1.288652E-2
4.475000E-8	1.288652E-2
4.480000E-8	1.295504E-2
4.485000E-8	1.306981E-2
4.490000E-8	1.324624E-2
4.495000E-8	1.339698E-2
4.500000E-8	1.360596E-2
4.505000E-8	1.386804E-2
4.510000E-8	1.417123E-2
4.515000E-8	1.453438E-2
4.520000E-8	1.491294E-2
4.525000E-8	1.535488E-2
4.530000E-8	1.586020E-2
4.535000E-8	1.632441E-2
4.540000E-8	1.680061E-2
4.545000E-8	1.727167E-2
4.550000E-8	1.774959E-2
4.555000E-8	1.826005E-2
4.560000E-8	1.873967E-2
4.565000E-8	1.920902E-2
4.570000E-8	1.962869E-2
4.575000E-8	1.998327E-2
4.580000E-8	2.033785E-2
4.585000E-8	2.063077E-2
4.590000E-8	2.087229E-2
4.595000E-8	2.104188E-2
4.600000E-8	2.119433E-2
4.605000E-8	2.123201E-2
4.610000E-8	2.123201E-2
4.615000E-8	2.117720E-2
4.620000E-8	2.105558E-2
4.625000E-8	2.086202E-2
4.630000E-8	2.057253E-2
4.635000E-8	2.021452E-2
4.640000E-8	1.976230E-2
4.645000E-8	1.930666E-2
4.650000E-8	1.882703E-2
4.655000E-8	1.832685E-2
4.660000E-8	1.780954E-2
4.665000E-8	1.730079E-2
4.670000E-8	1.675950E-2
4.675000E-8	1.622335E-2
4.680000E-8	1.569062E-2
4.685000E-8	1.522984E-2
4.690000E-8	1.478790E-2
4.695000E-8	1.441105E-2
4.700000E-8	1.403934E-2
4.705000E-8	1.373101E-2
4.710000E-8	1.350490E-2
4.715000E-8	1.335930E-2
4.720000E-8	1.326851E-2
4.725000E-8	1.326680E-2
4.730000E-8	1.328393E-2
4.735000E-8	1.336443E-2
4.740000E-8	1.352545E-2
4.745000E-8	1.369161E-2
4.750000E-8	1.392971E-2
4.755000E-8	1.417466E-2
4.760000E-8	1.443332E-2
4.765000E-8	1.470054E-2
4.770000E-8	1.503970E-2
4.775000E-8	1.537030E-2
4.780000E-8	1.570261E-2
4.785000E-8	1.605034E-2
4.790000E-8	1.641520E-2
4.795000E-8	1.674922E-2
4.800000E-8	1.711922E-2
4.805000E-8	1.746524E-2
4.810000E-8	1.780098E-2
4.815000E-8	1.807676E-2
4.820000E-8	1.838852E-2
4.825000E-8	1.863347E-2
4.830000E-8	1.883560E-2
4.835000E-8	1.905314E-2
4.840000E-8	1.923300E-2
4.845000E-8	1.938545E-2
4.850000E-8	1.951393E-2
4.855000E-8	1.959786E-2
4.860000E-8	1.959786E-2
4.865000E-8	1.960300E-2
4.870000E-8	1.956703E-2
4.875000E-8	1.946254E-2
4.880000E-8	1.930495E-2
4.885000E-8	1.910453E-2
4.890000E-8	1.877564E-2
4.895000E-8	1.837824E-2
4.900000E-8	1.793287E-2
4.905000E-8	1.747894E-2
4.910000E-8	1.696506E-2
4.915000E-8	1.644946E-2
4.920000E-8	1.594756E-2
4.925000E-8	1.552446E-2
4.930000E-8	1.516817E-2
4.935000E-8	1.487697E-2
4.940000E-8	1.462517E-2
4.945000E-8	1.445216E-2
4.950000E-8	1.431341E-2
4.955000E-8	1.418836E-2
4.960000E-8	1.406674E-2
4.965000E-8	1.395883E-2
4.970000E-8	1.382351E-2
4.975000E-8	1.367105E-2
4.980000E-8	1.351346E-2
4.985000E-8	1.337643E-2
4.990000E-8	1.327365E-2
4.995000E-8	1.322055E-2
5.000000E-8	1.321712E-2
5.005000E-8	1.331476E-2
5.010000E-8	1.349976E-2
5.015000E-8	1.374814E-2
5.020000E-8	1.410443E-2
5.025000E-8	1.457035E-2
5.030000E-8	1.509451E-2
5.035000E-8	1.564951E-2
5.040000E-8	1.619252E-2
5.045000E-8	1.667557E-2
5.050000E-8	1.711922E-2
5.055000E-8	1.750635E-2
5.060000E-8	1.781125E-2
5.065000E-8	1.811445E-2
5.070000E-8	1.833370E-2
5.075000E-8	1.852384E-2
5.080000E-8	1.871226E-2
5.085000E-8	1.885787E-2
5.090000E-8	1.898462E-2
5.095000E-8	1.910796E-2
5.100000E-8	1.917305E-2
5.105000E-8	1.920046E-2
5.110000E-8	1.915763E-2
5.115000E-8	1.904629E-2
5.120000E-8	1.887500E-2
5.125000E-8	1.863176E-2
5.130000E-8	1.833542E-2
5.135000E-8	1.796199E-2
5.140000E-8	1.759371E-2
5.145000E-8	1.719117E-2
5.150000E-8	1.679547E-2
5.155000E-8	1.640663E-2
5.160000E-8	1.600580E-2
5.165000E-8	1.562724E-2
5.170000E-8	1.528636E-2
5.175000E-8	1.493521E-2
5.180000E-8	1.457720E-2
5.185000E-8	1.427744E-2
5.190000E-8	1.396911E-2
5.195000E-8	1.366763E-2
5.200000E-8	1.338842E-2
5.205000E-8	1.314518E-2
5.210000E-8	1.294305E-2
5.215000E-8	1.278374E-2
5.220000E-8	1.268953E-2
5.225000E-8	1.260388E-2
5.230000E-8	1.262787E-2
5.235000E-8	1.266384E-2
5.240000E-8	1.275805E-2
5.245000E-8	1.287453E-2
5.250000E-8	1.302698E-2
5.255000E-8	1.317258E-2
5.260000E-8	1.332161E-2
5.265000E-8	1.347749E-2
5.270000E-8	1.362309E-2
5.275000E-8	1.374985E-2
5.280000E-8	1.391087E-2
5.285000E-8	1.409244E-2
5.290000E-8	1.432540E-2
5.295000E-8	1.459433E-2
5.300000E-8	1.490780E-2
5.305000E-8	1.528465E-2
5.310000E-8	1.573687E-2
5.315000E-8	1.616511E-2
5.320000E-8	1.662247E-2
5.325000E-8	1.708154E-2
5.330000E-8	1.743269E-2
5.335000E-8	1.770334E-2
5.340000E-8	1.792773E-2
5.345000E-8	1.806306E-2
5.350000E-8	1.812130E-2
5.355000E-8	1.813157E-2
5.360000E-8	1.807333E-2
5.365000E-8	1.798940E-2
5.370000E-8	1.786778E-2
5.375000E-8	1.769649E-2
5.380000E-8	1.754061E-2
5.385000E-8	1.737274E-2
5.390000E-8	1.722200E-2
5.395000E-8	1.704556E-2
5.400000E-8	1.685885E-2
5.405000E-8	1.661904E-2
5.410000E-8	1.635182E-2
5.415000E-8	1.603492E-2
5.420000E-8	1.566835E-2
5.425000E-8	1.525211E-2
5.430000E-8	1.477762E-2
5.435000E-8	1.434767E-2
5.440000E-8	1.389545E-2
5.445000E-8	1.347578E-2
5.450000E-8	1.309208E-2
5.455000E-8	1.280944E-2
5.460000E-8	1.259361E-2
5.465000E-8	1.239148E-2
5.470000E-8	1.227500E-2
5.475000E-8	1.222875E-2
5.480000E-8	1.222190E-2
5.485000E-8	1.224930E-2
5.490000E-8	1.229727E-2
5.495000E-8	1.237264E-2
5.500000E-8	1.243430E-2
5.505000E-8	1.249426E-2
5.510000E-8	1.261074E-2
5.515000E-8	1.271009E-2
5.520000E-8	1.282657E-2
5.525000E-8	1.295675E-2
5.530000E-8	1.316402E-2
5.535000E-8	1.337129E-2
5.540000E-8	1.361110E-2
5.545000E-8	1.388860E-2
5.550000E-8	1.420378E-2
5.555000E-8	1.452410E-2
5.560000E-8	1.482558E-2
5.565000E-8	1.515618E-2
5.570000E-8	1.546794E-2
5.575000E-8	1.578312E-2
5.580000E-8	1.607946E-2
5.585000E-8	1.634839E-2
5.590000E-8	1.657279E-2
5.595000E-8	1.674409E-2
5.600000E-8	1.686742E-2
5.605000E-8	1.693765E-2
5.610000E-8	1.694450E-2
5.615000E-8	1.689654E-2
5.620000E-8	1.680404E-2
5.625000E-8	1.668584E-2
5.630000E-8	1.655395E-2
5.635000E-8	1.638094E-2
5.640000E-8	1.614455E-2
5.645000E-8	1.587048E-2
5.650000E-8	1.561525E-2
5.655000E-8	1.535831E-2
5.660000E-8	1.508938E-2
5.665000E-8	1.481359E-2
5.670000E-8	1.455151E-2
5.675000E-8	1.429971E-2
5.680000E-8	1.403762E-2
5.685000E-8	1.377383E-2
5.690000E-8	1.347406E-2
5.695000E-8	1.315374E-2
5.700000E-8	1.284712E-2
5.705000E-8	1.249940E-2
5.710000E-8	1.220819E-2
5.715000E-8	1.191699E-2
5.720000E-8	1.165148E-2
5.725000E-8	1.145450E-2
5.730000E-8	1.132602E-2
5.735000E-8	1.129348E-2
5.740000E-8	1.134487E-2
5.745000E-8	1.144593E-2
5.750000E-8	1.161380E-2
5.755000E-8	1.183820E-2
5.760000E-8	1.209856E-2
5.765000E-8	1.239491E-2
5.770000E-8	1.266555E-2
5.775000E-8	1.293106E-2
5.780000E-8	1.315888E-2
5.785000E-8	1.339184E-2
5.790000E-8	1.363166E-2
5.795000E-8	1.385776E-2
5.800000E-8	1.407188E-2
5.805000E-8	1.429628E-2
5.810000E-8	1.452068E-2
5.815000E-8	1.469882E-2
5.820000E-8	1.491979E-2
5.825000E-8	1.509794E-2
5.830000E-8	1.530692E-2
5.835000E-8	1.550048E-2
5.840000E-8	1.564608E-2
5.845000E-8	1.580368E-2
5.850000E-8	1.592872E-2
5.855000E-8	1.597154E-2
5.860000E-8	1.596127E-2
5.865000E-8	1.591673E-2
5.870000E-8	1.582423E-2
5.875000E-8	1.570946E-2
5.880000E-8	1.555358E-2
5.885000E-8	1.536345E-2
5.890000E-8	1.518359E-2
5.895000E-8	1.503114E-2
5.900000E-8	1.481188E-2
5.905000E-8	1.461489E-2
5.910000E-8	1.440420E-2
5.915000E-8	1.416610E-2
5.920000E-8	1.390744E-2
5.925000E-8	1.362652E-2
5.930000E-8	1.334902E-2
5.935000E-8	1.306638E-2
5.940000E-8	1.278203E-2
5.945000E-8	1.251481E-2
5.950000E-8	1.228185E-2
5.955000E-8	1.210884E-2
5.960000E-8	1.196324E-2
5.965000E-8	1.185875E-2
5.970000E-8	1.180736E-2
5.975000E-8	1.179880E-2
5.980000E-8	1.182963E-2
5.985000E-8	1.194269E-2
5.990000E-8	1.203519E-2
5.995000E-8	1.214653E-2
6.000000E-8	1.226472E-2
6.005000E-8	1.239319E-2
6.010000E-8	1.253023E-2
6.015000E-8	1.262958E-2
6.020000E-8	1.272893E-2
6.025000E-8	1.282828E-2
6.030000E-8	1.292421E-2
6.035000E-8	1.300472E-2
6.040000E-8	1.311263E-2
6.045000E-8	1.321027E-2
6.050000E-8	1.331476E-2
6.055000E-8	1.345008E-2
6.060000E-8	1.362823E-2
6.065000E-8	1.382864E-2
6.070000E-8	1.403591E-2
6.075000E-8	1.426887E-2
6.080000E-8	1.449327E-2
6.085000E-8	1.477762E-2
6.090000E-8	1.503970E-2
6.095000E-8	1.524354E-2
6.100000E-8	1.542511E-2
6.105000E-8	1.556044E-2
6.110000E-8	1.558442E-2
6.115000E-8	1.558784E-2
6.120000E-8	1.552275E-2
6.125000E-8	1.538400E-2
6.130000E-8	1.521099E-2
6.135000E-8	1.501572E-2
6.140000E-8	1.479304E-2
6.145000E-8	1.458406E-2
6.150000E-8	1.437165E-2
6.155000E-8	1.416781E-2
6.160000E-8	1.401193E-2
6.165000E-8	1.382693E-2
6.170000E-8	1.365050E-2
6.175000E-8	1.347406E-2
6.180000E-8	1.330277E-2
6.185000E-8	1.305439E-2
6.190000E-8	1.284541E-2
6.195000E-8	1.257134E-2
6.200000E-8	1.229555E-2
6.205000E-8	1.202319E-2
6.210000E-8	1.181422E-2
6.215000E-8	1.163607E-2
6.220000E-8	1.151445E-2
6.225000E-8	1.144764E-2
6.230000E-8	1.140996E-2
6.235000E-8	1.141510E-2
6.240000E-8	1.147163E-2
6.245000E-8	1.157954E-2
6.250000E-8	1.168403E-2
6.255000E-8	1.178338E-2
6.260000E-8	1.188102E-2
6.265000E-8	1.200949E-2
6.270000E-8	1.211569E-2
6.275000E-8	1.221847E-2
6.280000E-8	1.232639E-2
6.285000E-8	1.240861E-2
6.290000E-8	1.251652E-2
6.295000E-8	1.262615E-2
6.300000E-8	1.273064E-2
6.305000E-8	1.283171E-2
6.310000E-8	1.293448E-2
6.315000E-8	1.306296E-2
6.320000E-8	1.315374E-2
6.325000E-8	1.324282E-2
6.330000E-8	1.335930E-2
6.335000E-8	1.345180E-2
6.340000E-8	1.353916E-2
6.345000E-8	1.360425E-2
6.350000E-8	1.367619E-2
6.355000E-8	1.371045E-2
6.360000E-8	1.373272E-2
6.365000E-8	1.377897E-2
6.370000E-8	1.381494E-2
6.375000E-8	1.381151E-2
6.380000E-8	1.375670E-2
6.385000E-8	1.369332E-2
6.390000E-8	1.362652E-2
6.395000E-8	1.348948E-2
6.400000E-8	1.334902E-2
6.405000E-8	1.320342E-2
6.410000E-8	1.308009E-2
6.415000E-8	1.292421E-2
6.420000E-8	1.272037E-2
6.425000E-8	1.254907E-2
6.430000E-8	1.239833E-2
6.435000E-8	1.223389E-2
6.440000E-8	1.208315E-2
6.445000E-8	1.194097E-2
6.450000E-8	1.179537E-2
6.455000E-8	1.165320E-2
6.460000E-8	1.147848E-2
6.465000E-8	1.131232E-2
6.470000E-8	1.112218E-2
6.475000E-8	1.091663E-2
6.480000E-8	1.073677E-2
6.485000E-8	1.055862E-2
6.490000E-8	1.045585E-2
6.495000E-8	1.035992E-2
6.500000E-8	1.032395E-2
6.505000E-8	1.033251E-2
6.510000E-8	1.038390E-2
6.515000E-8	1.054492E-2
6.520000E-8	1.077445E-2
6.525000E-8	1.099371E-2
6.530000E-8	1.126778E-2
6.535000E-8	1.152473E-2
6.540000E-8	1.171658E-2
6.545000E-8	1.187759E-2
6.550000E-8	1.199921E-2
6.555000E-8	1.206773E-2
6.560000E-8	1.209171E-2
6.565000E-8	1.207630E-2
6.570000E-8	1.209343E-2
6.575000E-8	1.209685E-2
6.580000E-8	1.211912E-2
6.585000E-8	1.217051E-2
6.590000E-8	1.229042E-2
6.595000E-8	1.241375E-2
6.600000E-8	1.257990E-2
6.605000E-8	1.274092E-2
6.610000E-8	1.286597E-2
6.615000E-8	1.296360E-2
6.620000E-8	1.305096E-2
6.625000E-8	1.313661E-2
6.630000E-8	1.314004E-2
6.635000E-8	1.311777E-2
6.640000E-8	1.306638E-2
6.645000E-8	1.292935E-2
6.650000E-8	1.279231E-2
6.655000E-8	1.266555E-2
6.660000E-8	1.251652E-2
6.665000E-8	1.239833E-2
6.670000E-8	1.227157E-2
6.675000E-8	1.218421E-2
6.680000E-8	1.208144E-2
6.685000E-8	1.197695E-2
6.690000E-8	1.188273E-2
6.695000E-8	1.172343E-2
6.700000E-8	1.156926E-2
6.705000E-8	1.144593E-2
6.710000E-8	1.126950E-2
6.715000E-8	1.106052E-2
6.720000E-8	1.084126E-2
6.725000E-8	1.061344E-2
6.730000E-8	1.042159E-2
6.735000E-8	1.024687E-2
6.740000E-8	1.011839E-2
6.745000E-8	1.002590E-2
6.750000E-8	1.000020E-2
6.755000E-8	1.004474E-2
6.760000E-8	1.014580E-2
6.765000E-8	1.024001E-2
6.770000E-8	1.039075E-2
6.775000E-8	1.054149E-2
6.780000E-8	1.069052E-2
6.785000E-8	1.080186E-2
6.790000E-8	1.091492E-2
6.795000E-8	1.101598E-2
6.800000E-8	1.109306E-2
6.805000E-8	1.117015E-2
6.810000E-8	1.126265E-2
6.815000E-8	1.134829E-2
6.820000E-8	1.148362E-2
6.825000E-8	1.160010E-2
6.830000E-8	1.175597E-2
6.835000E-8	1.189815E-2
6.840000E-8	1.201806E-2
6.845000E-8	1.214310E-2
6.850000E-8	1.228870E-2
6.855000E-8	1.242231E-2
6.860000E-8	1.248912E-2
6.865000E-8	1.253023E-2
6.870000E-8	1.253023E-2
6.875000E-8	1.248227E-2
6.880000E-8	1.239319E-2
6.885000E-8	1.234523E-2
6.890000E-8	1.227671E-2
6.895000E-8	1.220305E-2
6.900000E-8	1.210884E-2
6.905000E-8	1.203690E-2
6.910000E-8	1.198380E-2
6.915000E-8	1.192898E-2
6.920000E-8	1.188958E-2
6.925000E-8	1.188958E-2
6.930000E-8	1.188445E-2
6.935000E-8	1.187931E-2
6.940000E-8	1.186046E-2
6.945000E-8	1.181422E-2
6.950000E-8	1.177824E-2
6.955000E-8	1.172685E-2
6.960000E-8	1.163264E-2
6.965000E-8	1.153672E-2
6.970000E-8	1.140996E-2
6.975000E-8	1.125751E-2
6.980000E-8	1.103311E-2
6.985000E-8	1.080700E-2
6.990000E-8	1.058260E-2
6.995000E-8	1.034279E-2
7.000000E-8	1.015437E-2
7.005000E-8	9.989923E-3
7.010000E-8	9.840897E-3
7.015000E-8	9.770666E-3
7.020000E-8	9.791221E-3
7.025000E-8	9.856313E-3
7.030000E-8	1.001733E-2
7.035000E-8	1.021261E-2
7.040000E-8	1.037191E-2
7.045000E-8	1.055520E-2
7.050000E-8	1.077103E-2
7.055000E-8	1.096973E-2
7.060000E-8	1.119755E-2
7.065000E-8	1.144936E-2
7.070000E-8	1.165491E-2
7.075000E-8	1.185704E-2
7.080000E-8	1.202662E-2
7.085000E-8	1.211227E-2
7.090000E-8	1.217565E-2
7.095000E-8	1.219106E-2
7.100000E-8	1.219449E-2
7.105000E-8	1.219449E-2
7.110000E-8	1.216708E-2
7.115000E-8	1.208829E-2
7.120000E-8	1.204032E-2
7.125000E-8	1.199579E-2
7.130000E-8	1.193583E-2
7.135000E-8	1.187074E-2
7.140000E-8	1.180736E-2
7.145000E-8	1.176968E-2
7.150000E-8	1.175426E-2
7.155000E-8	1.174227E-2
7.160000E-8	1.170459E-2
7.165000E-8	1.171315E-2
7.170000E-8	1.168060E-2
7.175000E-8	1.162065E-2
7.180000E-8	1.152987E-2
7.185000E-8	1.145621E-2
7.190000E-8	1.135686E-2
7.195000E-8	1.120612E-2
7.200000E-8	1.107079E-2
7.205000E-8	1.092862E-2
7.210000E-8	1.078644E-2
7.215000E-8	1.066311E-2
7.220000E-8	1.054149E-2
7.225000E-8	1.038048E-2
7.230000E-8	1.023488E-2
7.235000E-8	1.014751E-2
7.240000E-8	1.002076E-2
7.245000E-8	9.911128E-3
7.250000E-8	9.825480E-3
7.255000E-8	9.758675E-3
7.260000E-8	9.676453E-3
7.265000E-8	9.657611E-3
7.270000E-8	9.654185E-3
7.275000E-8	9.674740E-3
7.280000E-8	9.710712E-3
7.285000E-8	9.768953E-3
7.290000E-8	9.851174E-3
7.295000E-8	9.936822E-3
7.300000E-8	1.004988E-2
7.305000E-8	1.018006E-2
7.310000E-8	1.034793E-2
7.315000E-8	1.049524E-2
7.320000E-8	1.062200E-2
7.325000E-8	1.078473E-2
7.330000E-8	1.093205E-2
7.335000E-8	1.103996E-2
7.340000E-8	1.117528E-2
7.345000E-8	1.128834E-2
7.350000E-8	1.139626E-2
7.355000E-8	1.146135E-2
7.360000E-8	1.151445E-2
7.365000E-8	1.154871E-2
7.370000E-8	1.154528E-2
7.375000E-8	1.152644E-2
7.380000E-8	1.147505E-2
7.385000E-8	1.140653E-2
7.390000E-8	1.137913E-2
7.395000E-8	1.134658E-2
7.400000E-8	1.128320E-2
7.405000E-8	1.124209E-2
7.410000E-8	1.118214E-2
7.415000E-8	1.105880E-2
7.420000E-8	1.093205E-2
7.425000E-8	1.082756E-2
7.430000E-8	1.066483E-2
7.435000E-8	1.050381E-2
7.440000E-8	1.039418E-2
7.445000E-8	1.026228E-2
7.450000E-8	1.016464E-2
7.455000E-8	1.008414E-2
7.460000E-8	1.001219E-2
7.465000E-8	9.931683E-3
7.470000E-8	9.893998E-3
7.475000E-8	9.787795E-3
7.480000E-8	9.655898E-3
7.485000E-8	9.546269E-3
7.490000E-8	9.433214E-3
7.495000E-8	9.335576E-3
7.500000E-8	9.263632E-3
7.505000E-8	9.193401E-3
7.510000E-8	9.138587E-3
7.515000E-8	9.116319E-3
7.520000E-8	9.111180E-3
7.525000E-8	9.165994E-3
7.530000E-8	9.227660E-3
7.535000E-8	9.350993E-3
7.540000E-8	9.482890E-3
7.545000E-8	9.623352E-3
7.550000E-8	9.753536E-3
7.555000E-8	9.863165E-3
7.560000E-8	9.945387E-3
7.565000E-8	9.995062E-3
7.570000E-8	1.008756E-2
7.575000E-8	1.017492E-2
7.580000E-8	1.024344E-2
7.585000E-8	1.027427E-2
7.590000E-8	1.031538E-2
7.595000E-8	1.034279E-2
7.600000E-8	1.038904E-2
7.605000E-8	1.043700E-2
7.610000E-8	1.045756E-2
7.615000E-8	1.044899E-2
7.620000E-8	1.045756E-2
7.625000E-8	1.045071E-2
7.630000E-8	1.044899E-2
7.635000E-8	1.041131E-2
7.640000E-8	1.037534E-2
7.645000E-8	1.035992E-2
7.650000E-8	1.032395E-2
7.655000E-8	1.025714E-2
7.660000E-8	1.021089E-2
7.665000E-8	1.016978E-2
7.670000E-8	1.012182E-2
7.675000E-8	1.007557E-2
7.680000E-8	1.002590E-2
7.685000E-8	9.959090E-3
7.690000E-8	9.890572E-3
7.695000E-8	9.816915E-3
7.700000E-8	9.697009E-3
7.705000E-8	9.570250E-3
7.710000E-8	9.457196E-3
7.715000E-8	9.357845E-3
7.720000E-8	9.287614E-3
7.725000E-8	9.231086E-3
7.730000E-8	9.222522E-3
7.735000E-8	9.200253E-3
7.740000E-8	9.169420E-3
7.745000E-8	9.148865E-3
7.750000E-8	9.107754E-3
7.755000E-8	9.123170E-3
7.760000E-8	9.148865E-3
7.765000E-8	9.179698E-3
7.770000E-8	9.198540E-3
7.775000E-8	9.232799E-3
7.780000E-8	9.265345E-3
7.785000E-8	9.267058E-3
7.790000E-8	9.297891E-3
7.795000E-8	9.328724E-3
7.800000E-8	9.359558E-3
7.805000E-8	9.350993E-3
7.810000E-8	9.386965E-3
7.815000E-8	9.421224E-3
7.820000E-8	9.436640E-3
7.825000E-8	9.464048E-3
7.830000E-8	9.496594E-3
7.835000E-8	9.506871E-3
7.840000E-8	9.542843E-3
7.845000E-8	9.599371E-3
7.850000E-8	9.650759E-3
7.855000E-8	9.662750E-3
7.860000E-8	9.683305E-3
7.865000E-8	9.726129E-3
7.870000E-8	9.775804E-3
7.875000E-8	9.820341E-3
7.880000E-8	9.893998E-3
7.885000E-8	9.969368E-3
7.890000E-8	1.000534E-2
7.895000E-8	1.000534E-2
7.900000E-8	9.971081E-3
7.905000E-8	9.917979E-3
7.910000E-8	9.866591E-3
7.915000E-8	9.813489E-3
7.920000E-8	9.767240E-3
7.925000E-8	9.691870E-3
7.930000E-8	9.607935E-3
7.935000E-8	9.506871E-3
7.940000E-8	9.441779E-3
7.945000E-8	9.359558E-3
7.950000E-8	9.320160E-3
7.955000E-8	9.270484E-3
7.960000E-8	9.217383E-3
7.965000E-8	9.167707E-3
7.970000E-8	9.104328E-3
7.975000E-8	9.006690E-3
7.980000E-8	8.946737E-3
7.985000E-8	8.855950E-3
7.990000E-8	8.748034E-3
7.995000E-8	8.664100E-3
8.000000E-8	8.614424E-3
8.005000E-8	8.602434E-3
8.010000E-8	8.619563E-3
8.015000E-8	8.655535E-3
8.020000E-8	8.727479E-3
8.025000E-8	8.799423E-3
8.030000E-8	8.840534E-3
8.035000E-8	8.888496E-3
8.040000E-8	8.898774E-3
8.045000E-8	8.890209E-3
8.050000E-8	8.897061E-3
8.055000E-8	8.845673E-3
8.060000E-8	8.773729E-3
8.065000E-8	8.751460E-3
8.070000E-8	8.712062E-3
8.075000E-8	8.682942E-3
8.080000E-8	8.660674E-3
8.085000E-8	8.679516E-3
8.090000E-8	8.729192E-3
8.095000E-8	8.794284E-3
8.100000E-8	8.903913E-3
8.105000E-8	9.006690E-3
8.110000E-8	9.131735E-3
8.115000E-8	9.210531E-3
8.120000E-8	9.258494E-3
8.125000E-8	9.315021E-3
8.130000E-8	9.301317E-3
8.135000E-8	9.267058E-3
8.140000E-8	9.231086E-3
8.145000E-8	9.217383E-3
8.150000E-8	9.154004E-3
8.155000E-8	9.102615E-3
8.160000E-8	9.064930E-3
8.165000E-8	9.042662E-3
8.170000E-8	9.049514E-3
8.175000E-8	9.090624E-3
8.180000E-8	9.133448E-3
8.185000E-8	9.186550E-3
8.190000E-8	9.263632E-3
8.195000E-8	9.301317E-3
8.200000E-8	9.321873E-3
8.205000E-8	9.339002E-3
8.210000E-8	9.308169E-3
8.215000E-8	9.255068E-3
8.220000E-8	9.183124E-3
8.225000E-8	9.064930E-3
8.230000E-8	8.979283E-3
8.235000E-8	8.873080E-3
8.240000E-8	8.773729E-3
8.245000E-8	8.693220E-3
8.250000E-8	8.622989E-3
8.255000E-8	8.593869E-3
8.260000E-8	8.559610E-3
8.265000E-8	8.575026E-3
8.270000E-8	8.587017E-3
8.275000E-8	8.619563E-3
8.280000E-8	8.616137E-3
8.285000E-8	8.629841E-3
8.290000E-8	8.648683E-3
8.295000E-8	8.670952E-3
8.300000E-8	8.688081E-3
8.305000E-8	8.703498E-3
8.310000E-8	8.706924E-3
8.315000E-8	8.717201E-3
8.320000E-8	8.751460E-3
8.325000E-8	8.794284E-3
8.330000E-8	8.869654E-3
8.335000E-8	8.980996E-3
8.340000E-8	9.087199E-3
8.345000E-8	9.172846E-3
8.350000E-8	9.299604E-3
8.355000E-8	9.350993E-3
8.360000E-8	9.376687E-3
8.365000E-8	9.327012E-3
8.370000E-8	9.285901E-3
8.375000E-8	9.195114E-3
8.380000E-8	9.097476E-3
8.385000E-8	9.028958E-3
8.390000E-8	8.903913E-3
8.395000E-8	8.777155E-3
8.400000E-8	8.662387E-3
8.405000E-8	8.559610E-3
8.410000E-8	8.492805E-3
8.415000E-8	8.463685E-3
8.420000E-8	8.463685E-3
8.425000E-8	8.499657E-3
8.430000E-8	8.585304E-3
8.435000E-8	8.684655E-3
8.440000E-8	8.746321E-3
8.445000E-8	8.765164E-3
8.450000E-8	8.804562E-3
8.455000E-8	8.813127E-3
8.460000E-8	8.799423E-3
8.465000E-8	8.778868E-3
8.470000E-8	8.736044E-3
8.475000E-8	8.664100E-3
8.480000E-8	8.595582E-3
8.485000E-8	8.523638E-3
8.490000E-8	8.484240E-3
8.495000E-8	8.484240E-3
8.500000E-8	8.540767E-3
8.505000E-8	8.587017E-3
8.510000E-8	8.662387E-3
8.515000E-8	8.722340E-3
8.520000E-8	8.763451E-3
8.525000E-8	8.778868E-3
8.530000E-8	8.749747E-3
8.535000E-8	8.684655E-3
8.540000E-8	8.600721E-3
8.545000E-8	8.479101E-3
8.550000E-8	8.345491E-3
8.555000E-8	8.239288E-3
8.560000E-8	8.157067E-3
8.565000E-8	8.090262E-3
8.570000E-8	8.013179E-3
8.575000E-8	7.925818E-3
8.580000E-8	7.913828E-3
8.585000E-8	7.936096E-3
8.590000E-8	8.011466E-3
8.595000E-8	8.117669E-3
8.600000E-8	8.247853E-3
8.605000E-8	8.396880E-3
8.610000E-8	8.554471E-3
8.615000E-8	8.691507E-3
8.620000E-8	8.775442E-3
8.625000E-8	8.854237E-3
8.630000E-8	8.885070E-3
8.635000E-8	8.842247E-3
8.640000E-8	8.809701E-3
8.645000E-8	8.722340E-3
8.650000E-8	8.646970E-3
8.655000E-8	8.563036E-3
8.660000E-8	8.508221E-3
8.665000E-8	8.475675E-3
8.670000E-8	8.496231E-3
8.675000E-8	8.487666E-3
8.680000E-8	8.484240E-3
8.685000E-8	8.532203E-3
8.690000E-8	8.540767E-3
8.695000E-8	8.544193E-3
8.700000E-8	8.521925E-3
8.705000E-8	8.463685E-3
8.710000E-8	8.393454E-3
8.715000E-8	8.306093E-3
8.720000E-8	8.220446E-3
8.725000E-8	8.086836E-3
8.730000E-8	7.966929E-3
8.735000E-8	7.855587E-3
8.740000E-8	7.752810E-3
8.745000E-8	7.651746E-3
8.750000E-8	7.555821E-3
8.755000E-8	7.521562E-3
8.760000E-8	7.507859E-3
8.765000E-8	7.477025E-3
8.770000E-8	7.485590E-3
8.775000E-8	7.542118E-3
8.780000E-8	7.608923E-3
8.785000E-8	7.680867E-3
8.790000E-8	7.785357E-3
8.795000E-8	7.853875E-3
8.800000E-8	7.942948E-3
8.805000E-8	8.014892E-3
8.810000E-8	8.045725E-3
8.815000E-8	8.054290E-3
8.820000E-8	8.030308E-3
8.825000E-8	7.956652E-3
8.830000E-8	7.860726E-3
8.835000E-8	7.732255E-3
8.840000E-8	7.598645E-3
8.845000E-8	7.487303E-3
8.850000E-8	7.382813E-3
8.855000E-8	7.316008E-3
8.860000E-8	7.235500E-3
8.865000E-8	7.240638E-3
8.870000E-8	7.257768E-3
8.875000E-8	7.304018E-3
8.880000E-8	7.362258E-3
8.885000E-8	7.422211E-3
8.890000E-8	7.485590E-3
8.895000E-8	7.554108E-3
8.900000E-8	7.631191E-3
8.905000E-8	7.692857E-3
8.910000E-8	7.756236E-3
8.915000E-8	7.807625E-3
8.920000E-8	7.857300E-3
8.925000E-8	7.891559E-3
8.930000E-8	7.984059E-3
8.935000E-8	8.073132E-3
8.940000E-8	8.134798E-3
8.945000E-8	8.223872E-3
8.950000E-8	8.314658E-3
8.955000E-8	8.390028E-3
8.960000E-8	8.458546E-3
8.965000E-8	8.473962E-3
8.970000E-8	8.448268E-3
8.975000E-8	8.427713E-3
8.980000E-8	8.398593E-3
8.985000E-8	8.338639E-3
8.990000E-8	8.256418E-3
8.995000E-8	8.210168E-3
9.000000E-8	8.150215E-3
9.005000E-8	8.091975E-3
9.010000E-8	8.025170E-3
9.015000E-8	7.961790E-3
9.020000E-8	7.927531E-3
9.025000E-8	7.882995E-3
9.030000E-8	7.843597E-3
9.035000E-8	7.795634E-3
9.040000E-8	7.740820E-3
9.045000E-8	7.662024E-3
9.050000E-8	7.598645E-3
9.055000E-8	7.535266E-3
9.060000E-8	7.494155E-3
9.065000E-8	7.501007E-3
9.070000E-8	7.495868E-3
9.075000E-8	7.516423E-3
9.080000E-8	7.548969E-3
9.085000E-8	7.595219E-3
9.090000E-8	7.663737E-3
9.095000E-8	7.757949E-3
9.100000E-8	7.829893E-3
9.105000E-8	7.954939E-3
9.110000E-8	8.021744E-3
9.115000E-8	8.100539E-3
9.120000E-8	8.126234E-3
9.125000E-8	8.102252E-3
9.130000E-8	8.061141E-3
9.135000E-8	8.020031E-3
9.140000E-8	7.956652E-3
9.145000E-8	7.865865E-3
9.150000E-8	7.781931E-3
9.155000E-8	7.699709E-3
9.160000E-8	7.650033E-3
9.165000E-8	7.596932E-3
9.170000E-8	7.574664E-3
9.175000E-8	7.608923E-3
9.180000E-8	7.663737E-3
9.185000E-8	7.675728E-3
9.190000E-8	7.691144E-3
9.195000E-8	7.703135E-3
9.200000E-8	7.708274E-3
9.205000E-8	7.687718E-3
9.210000E-8	7.627765E-3
9.215000E-8	7.542118E-3
9.220000E-8	7.471887E-3
9.225000E-8	7.365684E-3
9.230000E-8	7.278323E-3
9.235000E-8	7.196102E-3
9.240000E-8	7.098464E-3
9.245000E-8	7.007677E-3
9.250000E-8	6.952863E-3
9.255000E-8	6.935733E-3
9.260000E-8	6.956289E-3
9.265000E-8	7.004251E-3
9.270000E-8	7.067630E-3
9.275000E-8	7.196102E-3
9.280000E-8	7.316008E-3
9.285000E-8	7.441054E-3
9.290000E-8	7.521562E-3
9.295000E-8	7.560960E-3
9.300000E-8	7.535266E-3
9.305000E-8	7.506146E-3
9.310000E-8	7.425637E-3
9.315000E-8	7.310869E-3
9.320000E-8	7.165269E-3
9.325000E-8	7.036797E-3
9.330000E-8	6.952863E-3
9.335000E-8	6.877493E-3
9.340000E-8	6.858651E-3
9.345000E-8	6.886058E-3
9.350000E-8	6.932307E-3
9.355000E-8	6.997399E-3
9.360000E-8	7.065917E-3
9.365000E-8	7.177259E-3
9.370000E-8	7.290314E-3
9.375000E-8	7.379387E-3
9.380000E-8	7.451331E-3
9.385000E-8	7.511284E-3
9.390000E-8	7.560960E-3
9.395000E-8	7.591793E-3
9.400000E-8	7.602071E-3
9.405000E-8	7.629478E-3
9.410000E-8	7.626052E-3
9.415000E-8	7.590080E-3
9.420000E-8	7.583228E-3
9.425000E-8	7.569525E-3
9.430000E-8	7.588367E-3
9.435000E-8	7.595219E-3
9.440000E-8	7.579802E-3
9.445000E-8	7.560960E-3
9.450000E-8	7.554108E-3
9.455000E-8	7.559247E-3
9.460000E-8	7.530127E-3
9.465000E-8	7.465035E-3
9.470000E-8	7.367397E-3
9.475000E-8	7.254342E-3
9.480000E-8	7.095038E-3
9.485000E-8	6.963140E-3
9.490000E-8	6.819253E-3
9.495000E-8	6.730179E-3
9.500000E-8	6.673652E-3
9.505000E-8	6.677078E-3
9.510000E-8	6.704485E-3
9.515000E-8	6.791845E-3
9.520000E-8	6.949437E-3
9.525000E-8	7.108741E-3
9.530000E-8	7.331425E-3
9.535000E-8	7.526701E-3
9.540000E-8	7.680867E-3
9.545000E-8	7.778505E-3
9.550000E-8	7.811051E-3
9.555000E-8	7.790495E-3
9.560000E-8	7.706561E-3
9.565000E-8	7.579802E-3
9.570000E-8	7.420498E-3
9.575000E-8	7.249203E-3
9.580000E-8	7.053927E-3
9.585000E-8	6.898048E-3
9.590000E-8	6.747309E-3
9.595000E-8	6.617125E-3
9.600000E-8	6.538329E-3
9.605000E-8	6.528051E-3
9.610000E-8	6.543468E-3
9.615000E-8	6.586291E-3
9.620000E-8	6.622263E-3
9.625000E-8	6.694207E-3
9.630000E-8	6.815827E-3
9.635000E-8	6.908326E-3
9.640000E-8	7.002538E-3
9.645000E-8	7.071056E-3
9.650000E-8	7.120732E-3
9.655000E-8	7.158417E-3
9.660000E-8	7.204666E-3
9.665000E-8	7.228648E-3
9.670000E-8	7.235500E-3
9.675000E-8	7.204666E-3
9.680000E-8	7.158417E-3
9.685000E-8	7.091612E-3
9.690000E-8	7.040223E-3
9.695000E-8	7.005964E-3
9.700000E-8	6.928881E-3
9.705000E-8	6.891197E-3
9.710000E-8	6.896335E-3
9.715000E-8	6.879206E-3
9.720000E-8	6.863789E-3
9.725000E-8	6.874067E-3
9.730000E-8	6.896335E-3
9.735000E-8	6.904900E-3
9.740000E-8	6.939159E-3
9.745000E-8	6.981983E-3
9.750000E-8	7.007677E-3
9.755000E-8	6.969992E-3
9.760000E-8	6.922030E-3
9.765000E-8	6.862076E-3
9.770000E-8	6.832956E-3
9.775000E-8	6.783281E-3
9.780000E-8	6.726753E-3
9.785000E-8	6.673652E-3
9.790000E-8	6.639393E-3
9.795000E-8	6.622263E-3
9.800000E-8	6.608560E-3
9.805000E-8	6.582866E-3
9.810000E-8	6.521199E-3
9.815000E-8	6.450968E-3
9.820000E-8	6.373886E-3
9.825000E-8	6.310507E-3
9.830000E-8	6.265970E-3
9.835000E-8	6.229998E-3
9.840000E-8	6.151202E-3
9.845000E-8	6.103240E-3
9.850000E-8	6.041573E-3
9.855000E-8	5.985046E-3
9.860000E-8	5.942222E-3
9.865000E-8	5.925093E-3
9.870000E-8	5.952500E-3
9.875000E-8	5.969629E-3
9.880000E-8	5.961065E-3
9.885000E-8	5.954213E-3
9.890000E-8	5.978194E-3
9.895000E-8	5.990185E-3
9.900000E-8	6.003888E-3
9.905000E-8	6.036434E-3
9.910000E-8	6.043286E-3
9.915000E-8	6.058703E-3
9.920000E-8	6.092962E-3
9.925000E-8	6.161480E-3
9.930000E-8	6.197452E-3
9.935000E-8	6.223146E-3
9.940000E-8	6.221433E-3
9.945000E-8	6.207730E-3
9.950000E-8	6.182035E-3
9.955000E-8	6.115230E-3
9.960000E-8	6.019305E-3
9.965000E-8	5.950787E-3
9.970000E-8	5.926806E-3
9.975000E-8	5.878843E-3
9.980000E-8	5.878843E-3
9.985000E-8	5.919954E-3
9.990000E-8	5.995324E-3
9.995000E-8	6.070694E-3
1.000000E-7	6.159767E-3
1.000500E-7	6.250553E-3
1.001000E-7	6.339627E-3
1.001500E-7	6.375599E-3
1.002000E-7	6.389302E-3
1.002500E-7	6.370460E-3
1.003000E-7	6.348191E-3
1.003500E-7	6.260831E-3
1.004000E-7	6.151202E-3
1.004500E-7	5.993611E-3
1.005000E-7	5.815464E-3
1.005500E-7	5.659585E-3
1.006000E-7	5.496855E-3
1.006500E-7	5.378662E-3
1.007000E-7	5.334125E-3
1.007500E-7	5.366671E-3
1.008000E-7	5.448893E-3
1.008500E-7	5.587642E-3
1.009000E-7	5.806899E-3
1.009500E-7	6.053564E-3
1.010000E-7	6.289951E-3
1.010500E-7	6.519486E-3
1.011000E-7	6.752448E-3
1.011500E-7	6.896335E-3
1.012000E-7	7.000825E-3
1.012500E-7	7.045362E-3
1.013000E-7	7.000825E-3
1.013500E-7	6.865502E-3
1.014000E-7	6.697633E-3
1.014500E-7	6.512635E-3
1.015000E-7	6.315645E-3
1.015500E-7	6.125508E-3
1.016000E-7	5.937083E-3
1.016500E-7	5.806899E-3
1.017000E-7	5.731529E-3
1.017500E-7	5.690419E-3
1.018000E-7	5.738381E-3
1.018500E-7	5.800047E-3
1.019000E-7	5.894260E-3
1.019500E-7	6.005601E-3
1.020000E-7	6.125508E-3
1.020500E-7	6.200878E-3
1.021000E-7	6.296803E-3
1.021500E-7	6.351617E-3
1.022000E-7	6.341340E-3
1.022500E-7	6.250553E-3
1.023000E-7	6.099814E-3
1.023500E-7	5.943935E-3
1.024000E-7	5.779492E-3
1.024500E-7	5.613336E-3
1.025000E-7	5.466022E-3
1.025500E-7	5.349542E-3
1.026000E-7	5.296440E-3
1.026500E-7	5.308431E-3
1.027000E-7	5.335838E-3
1.027500E-7	5.394078E-3
1.028000E-7	5.483152E-3
1.028500E-7	5.553383E-3
1.029000E-7	5.657873E-3
1.029500E-7	5.692132E-3
1.030000E-7	5.698983E-3
1.030500E-7	5.692132E-3
1.031000E-7	5.654447E-3
1.031500E-7	5.592780E-3
1.032000E-7	5.515698E-3
1.032500E-7	5.400930E-3
1.033000E-7	5.320421E-3
1.033500E-7	5.246765E-3
1.034000E-7	5.215931E-3
1.034500E-7	5.217644E-3
1.035000E-7	5.245052E-3
1.035500E-7	5.298153E-3
1.036000E-7	5.346116E-3
1.036500E-7	5.424911E-3
1.037000E-7	5.493429E-3
1.037500E-7	5.527688E-3
1.038000E-7	5.565373E-3
1.038500E-7	5.584216E-3
1.039000E-7	5.587642E-3
1.039500E-7	5.580790E-3
1.040000E-7	5.548244E-3
1.040500E-7	5.551670E-3
1.041000E-7	5.568799E-3
1.041500E-7	5.580790E-3
1.042000E-7	5.623614E-3
1.042500E-7	5.736668E-3
1.043000E-7	5.860001E-3
1.043500E-7	5.973055E-3
1.044000E-7	6.098101E-3
1.044500E-7	6.178609E-3
1.045000E-7	6.188887E-3
1.045500E-7	6.231711E-3
1.046000E-7	6.206017E-3
1.046500E-7	6.147776E-3
1.047000E-7	6.106665E-3
1.047500E-7	6.019305E-3
1.048000E-7	5.909676E-3
1.048500E-7	5.805186E-3
1.049000E-7	5.729816E-3
1.049500E-7	5.681854E-3
1.050000E-7	5.630465E-3
1.050500E-7	5.609910E-3
1.051000E-7	5.606484E-3
1.051500E-7	5.625326E-3
1.052000E-7	5.657873E-3
1.052500E-7	5.698983E-3
1.053000E-7	5.734955E-3
1.053500E-7	5.755511E-3
1.054000E-7	5.752085E-3
1.054500E-7	5.748659E-3
1.055000E-7	5.710974E-3
1.055500E-7	5.666437E-3
1.056000E-7	5.627039E-3
1.056500E-7	5.585929E-3
1.057000E-7	5.591067E-3
1.057500E-7	5.601345E-3
1.058000E-7	5.647595E-3
1.058500E-7	5.666437E-3
1.059000E-7	5.702409E-3
1.059500E-7	5.776066E-3
1.060000E-7	5.887408E-3
1.060500E-7	6.002175E-3
1.061000E-7	6.087823E-3
1.061500E-7	6.156341E-3
1.062000E-7	6.199165E-3
1.062500E-7	6.245414E-3
1.063000E-7	6.250553E-3
1.063500E-7	6.219720E-3
1.064000E-7	6.154628E-3
1.064500E-7	6.089536E-3
1.065000E-7	5.976481E-3
1.065500E-7	5.882269E-3
1.066000E-7	5.782918E-3
1.066500E-7	5.700696E-3
1.067000E-7	5.649308E-3
1.067500E-7	5.594493E-3
1.068000E-7	5.508846E-3
1.068500E-7	5.455744E-3
1.069000E-7	5.418060E-3
1.069500E-7	5.366671E-3
1.070000E-7	5.356393E-3
1.070500E-7	5.370097E-3
1.071000E-7	5.414634E-3
1.071500E-7	5.508846E-3
1.072000E-7	5.573938E-3
1.072500E-7	5.680141E-3
1.073000E-7	5.784631E-3
1.073500E-7	5.806899E-3
1.074000E-7	5.818890E-3
1.074500E-7	5.741807E-3
1.075000E-7	5.635604E-3
1.075500E-7	5.510559E-3
1.076000E-7	5.340977E-3
1.076500E-7	5.138849E-3
1.077000E-7	4.967554E-3
1.077500E-7	4.791120E-3
1.078000E-7	4.619825E-3
1.078500E-7	4.542742E-3
1.079000E-7	4.489641E-3
1.079500E-7	4.472511E-3
1.080000E-7	4.525613E-3
1.080500E-7	4.599269E-3
1.081000E-7	4.727741E-3
1.081500E-7	4.852786E-3
1.082000E-7	4.943572E-3
1.082500E-7	5.027507E-3
1.083000E-7	5.128571E-3
1.083500E-7	5.173108E-3
1.084000E-7	5.193663E-3
1.084500E-7	5.202228E-3
1.085000E-7	5.161117E-3
1.085500E-7	5.133710E-3
1.086000E-7	5.072044E-3
1.086500E-7	5.030933E-3
1.087000E-7	4.991535E-3
1.087500E-7	4.936721E-3
1.088000E-7	4.893897E-3
1.088500E-7	4.839082E-3
1.089000E-7	4.796259E-3
1.089500E-7	4.734592E-3
1.090000E-7	4.703759E-3
1.090500E-7	4.679778E-3
1.091000E-7	4.686630E-3
1.091500E-7	4.703759E-3
1.092000E-7	4.758574E-3
1.092500E-7	4.835657E-3
1.093000E-7	4.911026E-3
1.093500E-7	4.977831E-3
1.094000E-7	5.018942E-3
1.094500E-7	5.049775E-3
1.095000E-7	5.094312E-3
1.095500E-7	5.133710E-3
1.096000E-7	5.149126E-3
1.096500E-7	5.176534E-3
1.097000E-7	5.203941E-3
1.097500E-7	5.214218E-3
1.098000E-7	5.214218E-3
1.098500E-7	5.263894E-3
1.099000E-7	5.294727E-3
1.099500E-7	5.352967E-3
1.100000E-7	5.352967E-3
1.100500E-7	5.349542E-3
1.101000E-7	5.286162E-3
1.101500E-7	5.221070E-3
1.102000E-7	5.147413E-3
1.102500E-7	5.044636E-3
1.103000E-7	4.899036E-3
1.103500E-7	4.765426E-3
1.104000E-7	4.657510E-3
1.104500E-7	4.571862E-3
1.105000E-7	4.537603E-3
1.105500E-7	4.532464E-3
1.106000E-7	4.529038E-3
1.106500E-7	4.585566E-3
1.107000E-7	4.631815E-3
1.107500E-7	4.714037E-3
1.108000E-7	4.765426E-3
1.108500E-7	4.840795E-3
1.109000E-7	4.871628E-3
1.109500E-7	4.871628E-3
1.110000E-7	4.871628E-3
1.110500E-7	4.883619E-3
1.111000E-7	4.909313E-3
1.111500E-7	4.926443E-3
1.112000E-7	4.935008E-3
1.112500E-7	4.994961E-3
1.113000E-7	5.066905E-3
1.113500E-7	5.113154E-3
1.114000E-7	5.128571E-3
1.114500E-7	5.145700E-3
1.115000E-7	5.171395E-3
1.115500E-7	5.164543E-3
1.116000E-7	5.133710E-3
1.116500E-7	5.159404E-3
1.117000E-7	5.171395E-3
1.117500E-7	5.164543E-3
1.118000E-7	5.185098E-3
1.118500E-7	5.190237E-3
1.119000E-7	5.185098E-3
1.119500E-7	5.200515E-3
1.120000E-7	5.193663E-3
1.120500E-7	5.152552E-3
1.121000E-7	5.106303E-3
1.121500E-7	5.029220E-3
1.122000E-7	4.929869E-3
1.122500E-7	4.818527E-3
1.123000E-7	4.717463E-3
1.123500E-7	4.602695E-3
1.124000E-7	4.508483E-3
1.124500E-7	4.421123E-3
1.125000E-7	4.392002E-3
1.125500E-7	4.431400E-3
1.126000E-7	4.491354E-3
1.126500E-7	4.571862E-3
1.127000E-7	4.679778E-3
1.127500E-7	4.773990E-3
1.128000E-7	4.821953E-3
1.128500E-7	4.852786E-3
1.129000E-7	4.868203E-3
1.129500E-7	4.856212E-3
1.130000E-7	4.809962E-3
1.130500E-7	4.748296E-3
1.131000E-7	4.708898E-3
1.131500E-7	4.655797E-3
1.132000E-7	4.650658E-3
1.132500E-7	4.652371E-3
1.133000E-7	4.691769E-3
1.133500E-7	4.825379E-3
1.134000E-7	4.938434E-3
1.134500E-7	5.058340E-3
1.135000E-7	5.183385E-3
1.135500E-7	5.239913E-3
1.136000E-7	5.258755E-3
1.136500E-7	5.265607E-3
1.137000E-7	5.250190E-3
1.137500E-7	5.212506E-3
1.138000E-7	5.161117E-3
1.138500E-7	5.138849E-3
1.139000E-7	5.128571E-3
1.139500E-7	5.120006E-3
1.140000E-7	5.108016E-3
1.140500E-7	5.126858E-3
1.141000E-7	5.159404E-3
1.141500E-7	5.178247E-3
1.142000E-7	5.212506E-3
1.142500E-7	5.226209E-3
1.143000E-7	5.212506E-3
1.143500E-7	5.212506E-3
1.144000E-7	5.200515E-3
1.144500E-7	5.173108E-3
1.145000E-7	5.114867E-3
1.145500E-7	5.063479E-3
1.146000E-7	5.027507E-3
1.146500E-7	4.965841E-3
1.147000E-7	4.907600E-3
1.147500E-7	4.823666E-3
1.148000E-7	4.724315E-3
1.148500E-7	4.628390E-3
1.149000E-7	4.542742E-3
1.149500E-7	4.448530E-3
1.150000E-7	4.364595E-3
1.150500E-7	4.270383E-3
1.151000E-7	4.217282E-3
1.151500E-7	4.186448E-3
1.152000E-7	4.241263E-3
1.152500E-7	4.282374E-3
1.153000E-7	4.398854E-3
1.153500E-7	4.518761E-3
1.154000E-7	4.643806E-3
1.154500E-7	4.743157E-3
1.155000E-7	4.849360E-3
1.155500E-7	4.917878E-3
1.156000E-7	4.943572E-3
1.156500E-7	4.950424E-3
1.157000E-7	4.904175E-3
1.157500E-7	4.859638E-3
1.158000E-7	4.787694E-3
1.158500E-7	4.708898E-3
1.159000E-7	4.640380E-3
1.159500E-7	4.590705E-3
1.160000E-7	4.594131E-3
1.160500E-7	4.655797E-3
1.161000E-7	4.714037E-3
1.161500E-7	4.772277E-3
1.162000E-7	4.830518E-3
1.162500E-7	4.905887E-3
1.163000E-7	4.953850E-3
1.163500E-7	4.962415E-3
1.164000E-7	4.924730E-3
1.164500E-7	4.917878E-3
1.165000E-7	4.852786E-3
1.165500E-7	4.785981E-3
1.166000E-7	4.714037E-3
1.166500E-7	4.662649E-3
1.167000E-7	4.618112E-3
1.167500E-7	4.566723E-3
1.168000E-7	4.515335E-3
1.168500E-7	4.511909E-3
1.169000E-7	4.508483E-3
1.169500E-7	4.487928E-3
1.170000E-7	4.489641E-3
1.170500E-7	4.462233E-3
1.171000E-7	4.448530E-3
1.171500E-7	4.448530E-3
1.172000E-7	4.457095E-3
1.172500E-7	4.487928E-3
1.173000E-7	4.518761E-3
1.173500E-7	4.542742E-3
1.174000E-7	4.554733E-3
1.174500E-7	4.626677E-3
1.175000E-7	4.669500E-3
1.175500E-7	4.717463E-3
1.176000E-7	4.808249E-3
1.176500E-7	4.857925E-3
1.177000E-7	4.907600E-3
1.177500E-7	4.969267E-3
1.178000E-7	5.025794E-3
1.178500E-7	5.051488E-3
1.179000E-7	5.097738E-3
1.179500E-7	5.111441E-3
1.180000E-7	5.128571E-3
1.180500E-7	5.125145E-3
1.181000E-7	5.082321E-3
1.181500E-7	5.053201E-3
1.182000E-7	5.037785E-3
1.182500E-7	5.006952E-3
1.183000E-7	4.984683E-3
1.183500E-7	4.964128E-3
1.184000E-7	4.960702E-3
1.184500E-7	4.938434E-3
1.185000E-7	4.893897E-3
1.185500E-7	4.820240E-3
1.186000E-7	4.734592E-3
1.186500E-7	4.631815E-3
1.187000E-7	4.508483E-3
1.187500E-7	4.374873E-3
1.188000E-7	4.220707E-3
1.188500E-7	4.073394E-3
1.189000E-7	3.907238E-3
1.189500E-7	3.794183E-3
1.190000E-7	3.711961E-3
1.190500E-7	3.694832E-3
1.191000E-7	3.739368E-3
1.191500E-7	3.799322E-3
1.192000E-7	3.896960E-3
1.192500E-7	4.042561E-3
1.193000E-7	4.225846E-3
1.193500E-7	4.352605E-3
1.194000E-7	4.489641E-3
1.194500E-7	4.568436E-3
1.195000E-7	4.609547E-3
1.195500E-7	4.619825E-3
1.196000E-7	4.577001E-3
1.196500E-7	4.529038E-3
1.197000E-7	4.445104E-3
1.197500E-7	4.350892E-3
1.198000E-7	4.229272E-3
1.198500E-7	4.140199E-3
1.199000E-7	4.095662E-3
1.199500E-7	4.061403E-3
1.200000E-7	4.042561E-3
1.200500E-7	4.064829E-3
1.201000E-7	4.112792E-3
1.201500E-7	4.164180E-3
1.202000E-7	4.232698E-3
1.202500E-7	4.272096E-3
1.203000E-7	4.282374E-3
1.203500E-7	4.256679E-3
1.204000E-7	4.207004E-3
1.204500E-7	4.117930E-3
1.205000E-7	4.018579E-3
1.205500E-7	3.932932E-3
1.206000E-7	3.816451E-3
1.206500E-7	3.747933E-3
1.207000E-7	3.727378E-3
1.207500E-7	3.701684E-3
1.208000E-7	3.711961E-3
1.208500E-7	3.794183E-3
1.209000E-7	3.871266E-3
1.209500E-7	3.982607E-3
1.210000E-7	4.081958E-3
1.210500E-7	4.174458E-3
1.211000E-7	4.272096E-3
1.211500E-7	4.366308E-3
1.212000E-7	4.410845E-3
1.212500E-7	4.417697E-3
1.213000E-7	4.412558E-3
1.213500E-7	4.388577E-3
1.214000E-7	4.359456E-3
1.214500E-7	4.366308E-3
1.215000E-7	4.349179E-3
1.215500E-7	4.378299E-3
1.216000E-7	4.421123E-3
1.216500E-7	4.465659E-3
1.217000E-7	4.513622E-3
1.217500E-7	4.530751E-3
1.218000E-7	4.527326E-3
1.218500E-7	4.474224E-3
1.219000E-7	4.403993E-3
1.219500E-7	4.309781E-3
1.220000E-7	4.236124E-3
1.220500E-7	4.198439E-3
1.221000E-7	4.136773E-3
1.221500E-7	4.111079E-3
1.222000E-7	4.102514E-3
1.222500E-7	4.100801E-3
1.223000E-7	4.121356E-3
1.223500E-7	4.121356E-3
1.224000E-7	4.126495E-3
1.224500E-7	4.100801E-3
1.225000E-7	4.039135E-3
1.225500E-7	3.968904E-3
1.226000E-7	3.915802E-3
1.226500E-7	3.814738E-3
1.227000E-7	3.725665E-3
1.227500E-7	3.665712E-3
1.228000E-7	3.583490E-3
1.228500E-7	3.528676E-3
1.229000E-7	3.526963E-3
1.229500E-7	3.532102E-3
1.230000E-7	3.581777E-3
1.230500E-7	3.660573E-3
1.231000E-7	3.782192E-3
1.231500E-7	3.888395E-3
1.232000E-7	4.010015E-3
1.232500E-7	4.119643E-3
1.233000E-7	4.220707E-3
1.233500E-7	4.273809E-3
1.234000E-7	4.318346E-3
1.234500E-7	4.362882E-3
1.235000E-7	4.383438E-3
1.235500E-7	4.397141E-3
1.236000E-7	4.357743E-3
1.236500E-7	4.268670E-3
1.237000E-7	4.176171E-3
1.237500E-7	4.081958E-3
1.238000E-7	3.977469E-3
1.238500E-7	3.871266E-3
1.239000E-7	3.749646E-3
1.239500E-7	3.657147E-3
1.240000E-7	3.576638E-3
1.240500E-7	3.544092E-3
1.241000E-7	3.521824E-3
1.241500E-7	3.537240E-3
1.242000E-7	3.590342E-3
1.242500E-7	3.672563E-3
1.243000E-7	3.789044E-3
1.243500E-7	3.917515E-3
1.244000E-7	4.025431E-3
1.244500E-7	4.135060E-3
1.245000E-7	4.241263E-3
1.245500E-7	4.296077E-3
1.246000E-7	4.316633E-3
1.246500E-7	4.376586E-3
1.247000E-7	4.368021E-3
1.247500E-7	4.301216E-3
1.248000E-7	4.236124E-3
1.248500E-7	4.162467E-3
1.249000E-7	4.063116E-3
1.249500E-7	3.970617E-3
1.250000E-7	3.896960E-3
1.250500E-7	3.801035E-3
1.251000E-7	3.703397E-3
1.251500E-7	3.624601E-3
1.252000E-7	3.574925E-3
1.252500E-7	3.523537E-3
1.253000E-7	3.530389E-3
1.253500E-7	3.562935E-3
1.254000E-7	3.605758E-3
1.254500E-7	3.708535E-3
1.255000E-7	3.780479E-3
1.255500E-7	3.890108E-3
1.256000E-7	3.967191E-3
1.256500E-7	4.023718E-3
1.257000E-7	4.015153E-3
1.257500E-7	3.980894E-3
1.258000E-7	3.939784E-3
1.258500E-7	3.862701E-3
1.259000E-7	3.780479E-3
1.259500E-7	3.699971E-3
1.260000E-7	3.622888E-3
1.260500E-7	3.595481E-3
1.261000E-7	3.585203E-3
1.261500E-7	3.619462E-3
1.262000E-7	3.705109E-3
1.262500E-7	3.811312E-3
1.263000E-7	3.915802E-3
1.263500E-7	4.003163E-3
1.264000E-7	4.081958E-3
1.264500E-7	4.124782E-3
1.265000E-7	4.111079E-3
1.265500E-7	4.080246E-3
1.266000E-7	4.037422E-3
1.266500E-7	3.960339E-3
1.267000E-7	3.872979E-3
1.267500E-7	3.782192E-3
1.268000E-7	3.703397E-3
1.268500E-7	3.646869E-3
1.269000E-7	3.631453E-3
1.269500E-7	3.636591E-3
1.270000E-7	3.638304E-3
1.270500E-7	3.672563E-3
1.271000E-7	3.698258E-3
1.271500E-7	3.694832E-3
1.272000E-7	3.663999E-3
1.272500E-7	3.602332E-3
1.273000E-7	3.544092E-3
1.273500E-7	3.463584E-3
1.274000E-7	3.412195E-3
1.274500E-7	3.362519E-3
1.275000E-7	3.360807E-3
1.275500E-7	3.371084E-3
1.276000E-7	3.425899E-3
1.276500E-7	3.508120E-3
1.277000E-7	3.624601E-3
1.277500E-7	3.722239E-3
1.278000E-7	3.818164E-3
1.278500E-7	3.862701E-3
1.279000E-7	3.893534E-3
1.279500E-7	3.871266E-3
1.280000E-7	3.799322E-3
1.280500E-7	3.684554E-3
1.281000E-7	3.530389E-3
1.281500E-7	3.357381E-3
1.282000E-7	3.215206E-3
1.282500E-7	3.109003E-3
1.283000E-7	3.040485E-3
1.283500E-7	2.985670E-3
1.284000E-7	3.002800E-3
1.284500E-7	3.011365E-3
1.285000E-7	3.076457E-3
1.285500E-7	3.174095E-3
1.286000E-7	3.288863E-3
1.286500E-7	3.379649E-3
1.287000E-7	3.484139E-3
1.287500E-7	3.544092E-3
1.288000E-7	3.540666E-3
1.288500E-7	3.509833E-3
1.289000E-7	3.472148E-3
1.289500E-7	3.424186E-3
1.290000E-7	3.359094E-3
1.290500E-7	3.316270E-3
1.291000E-7	3.297427E-3
1.291500E-7	3.283724E-3
1.292000E-7	3.312844E-3
1.292500E-7	3.348816E-3
1.293000E-7	3.434463E-3
1.293500E-7	3.535527E-3
1.294000E-7	3.624601E-3
1.294500E-7	3.734230E-3
1.295000E-7	3.795896E-3
1.295500E-7	3.804461E-3
1.296000E-7	3.802748E-3
1.296500E-7	3.801035E-3
1.297000E-7	3.770202E-3
1.297500E-7	3.747933E-3
1.298000E-7	3.723952E-3
1.298500E-7	3.663999E-3
1.299000E-7	3.640017E-3
1.299500E-7	3.602332E-3
1.300000E-7	3.598907E-3
1.300500E-7	3.645156E-3
1.301000E-7	3.665712E-3
1.301500E-7	3.684554E-3
1.302000E-7	3.758211E-3
1.302500E-7	3.792470E-3
1.303000E-7	3.811312E-3
1.303500E-7	3.773627E-3
1.304000E-7	3.758211E-3
1.304500E-7	3.741081E-3
1.305000E-7	3.730804E-3
1.305500E-7	3.725665E-3
1.306000E-7	3.741081E-3
1.306500E-7	3.753072E-3
1.307000E-7	3.739368E-3
1.307500E-7	3.725665E-3
1.308000E-7	3.722239E-3
1.308500E-7	3.699971E-3
1.309000E-7	3.670850E-3
1.309500E-7	3.687980E-3
1.310000E-7	3.687980E-3
1.310500E-7	3.706822E-3
1.311000E-7	3.718813E-3
1.311500E-7	3.722239E-3
1.312000E-7	3.763350E-3
1.312500E-7	3.819877E-3
1.313000E-7	3.890108E-3
1.313500E-7	3.908951E-3
1.314000E-7	3.934645E-3
1.314500E-7	3.946635E-3
1.315000E-7	3.951774E-3
1.315500E-7	3.948348E-3
1.316000E-7	3.927793E-3
1.316500E-7	3.886682E-3
1.317000E-7	3.872979E-3
1.317500E-7	3.842145E-3
1.318000E-7	3.823303E-3
1.318500E-7	3.818164E-3
1.319000E-7	3.848997E-3
1.319500E-7	3.828442E-3
1.320000E-7	3.807886E-3
1.320500E-7	3.778766E-3
1.321000E-7	3.749646E-3
1.321500E-7	3.687980E-3
1.322000E-7	3.634879E-3
1.322500E-7	3.605758E-3
1.323000E-7	3.569786E-3
1.323500E-7	3.542379E-3
1.324000E-7	3.470435E-3
1.324500E-7	3.412195E-3
1.325000E-7	3.372797E-3
1.325500E-7	3.371084E-3
1.326000E-7	3.383075E-3
1.326500E-7	3.446454E-3
1.327000E-7	3.509833E-3
1.327500E-7	3.585203E-3
1.328000E-7	3.648582E-3
1.328500E-7	3.670850E-3
1.329000E-7	3.662286E-3
1.329500E-7	3.650295E-3
1.330000E-7	3.610897E-3
1.330500E-7	3.547518E-3
1.331000E-7	3.497843E-3
1.331500E-7	3.444741E-3
1.332000E-7	3.431037E-3
1.332500E-7	3.436176E-3
1.333000E-7	3.479000E-3
1.333500E-7	3.521824E-3
1.334000E-7	3.580064E-3
1.334500E-7	3.652008E-3
1.335000E-7	3.711961E-3
1.335500E-7	3.766776E-3
1.336000E-7	3.806174E-3
1.336500E-7	3.782192E-3
1.337000E-7	3.730804E-3
1.337500E-7	3.619462E-3
1.338000E-7	3.480713E-3
1.338500E-7	3.398491E-3
1.339000E-7	3.314557E-3
1.339500E-7	3.282011E-3
1.340000E-7	3.264881E-3
1.340500E-7	3.312844E-3
1.341000E-7	3.396778E-3
1.341500E-7	3.523537E-3
1.342000E-7	3.663999E-3
1.342500E-7	3.813025E-3
1.343000E-7	3.956913E-3
1.343500E-7	4.045987E-3
1.344000E-7	4.088810E-3
1.344500E-7	4.071681E-3
1.345000E-7	4.011728E-3
1.345500E-7	3.890108E-3
1.346000E-7	3.756498E-3
1.346500E-7	3.598907E-3
1.347000E-7	3.472148E-3
1.347500E-7	3.359094E-3
1.348000E-7	3.258030E-3
1.348500E-7	3.210067E-3
1.349000E-7	3.196363E-3
1.349500E-7	3.246039E-3
1.350000E-7	3.263168E-3
1.350500E-7	3.312844E-3
1.351000E-7	3.340251E-3
1.351500E-7	3.326548E-3
1.352000E-7	3.282011E-3
1.352500E-7	3.201502E-3
1.353000E-7	3.107290E-3
1.353500E-7	2.989096E-3
1.354000E-7	2.865764E-3
1.354500E-7	2.757848E-3
1.355000E-7	2.644793E-3
1.355500E-7	2.567711E-3
1.356000E-7	2.519748E-3
1.356500E-7	2.499193E-3
1.357000E-7	2.565998E-3
1.357500E-7	2.667062E-3
1.358000E-7	2.774978E-3
1.358500E-7	2.888032E-3
1.359000E-7	3.042198E-3
1.359500E-7	3.156965E-3
1.360000E-7	3.230622E-3
1.360500E-7	3.302566E-3
1.361000E-7	3.326548E-3
1.361500E-7	3.324835E-3
1.362000E-7	3.264881E-3
1.362500E-7	3.168956E-3
1.363000E-7	3.102151E-3
1.363500E-7	3.057614E-3
1.364000E-7	3.011365E-3
1.364500E-7	2.971967E-3
1.365000E-7	2.980532E-3
1.365500E-7	3.028494E-3
1.366000E-7	3.110716E-3
1.366500E-7	3.234048E-3
1.367000E-7	3.360807E-3
1.367500E-7	3.509833E-3
1.368000E-7	3.652008E-3
1.368500E-7	3.766776E-3
1.369000E-7	3.881543E-3
1.369500E-7	3.984320E-3
1.370000E-7	4.032283E-3
1.370500E-7	4.104227E-3
1.371000E-7	4.114505E-3
1.371500E-7	4.075107E-3
1.372000E-7	4.023718E-3
1.372500E-7	3.970617E-3
1.373000E-7	3.919228E-3
1.373500E-7	3.843858E-3
1.374000E-7	3.782192E-3
1.374500E-7	3.739368E-3
1.375000E-7	3.713674E-3
1.375500E-7	3.610897E-3
1.376000E-7	3.547518E-3
1.376500E-7	3.496130E-3
1.377000E-7	3.384788E-3
1.377500E-7	3.317983E-3
1.378000E-7	3.232335E-3
1.378500E-7	3.177521E-3
1.379000E-7	3.081596E-3
1.379500E-7	3.040485E-3
1.380000E-7	2.975393E-3
1.380500E-7	2.942847E-3
1.381000E-7	2.910301E-3
1.381500E-7	2.925717E-3
1.382000E-7	2.932569E-3
1.382500E-7	2.958263E-3
1.383000E-7	3.026781E-3
1.383500E-7	3.110716E-3
1.384000E-7	3.208354E-3
1.384500E-7	3.357381E-3
1.385000E-7	3.460158E-3
1.385500E-7	3.550944E-3
1.386000E-7	3.653721E-3
1.386500E-7	3.713674E-3
1.387000E-7	3.775340E-3
1.387500E-7	3.845571E-3
1.388000E-7	3.862701E-3
1.388500E-7	3.859275E-3
1.389000E-7	3.816451E-3
1.389500E-7	3.773627E-3
1.390000E-7	3.720526E-3
1.390500E-7	3.626314E-3
1.391000E-7	3.581777E-3
1.391500E-7	3.501268E-3
1.392000E-7	3.436176E-3
1.392500E-7	3.364232E-3
1.393000E-7	3.278585E-3
1.393500E-7	3.180947E-3
1.394000E-7	3.098725E-3
1.394500E-7	3.006226E-3
1.395000E-7	2.939421E-3
1.395500E-7	2.891458E-3
1.396000E-7	2.855486E-3
1.396500E-7	2.918865E-3
1.397000E-7	2.978819E-3
1.397500E-7	3.102151E-3
1.398000E-7	3.203215E-3
1.398500E-7	3.350529E-3
1.399000E-7	3.431037E-3
1.399500E-7	3.477287E-3
1.400000E-7	3.496130E-3
1.400500E-7	3.468722E-3
1.401000E-7	3.389927E-3
1.401500E-7	3.258030E-3
1.402000E-7	3.103864E-3
1.402500E-7	2.893171E-3
1.403000E-7	2.720163E-3
1.403500E-7	2.564285E-3
1.404000E-7	2.422110E-3
1.404500E-7	2.346740E-3
1.405000E-7	2.355305E-3
1.405500E-7	2.380999E-3
1.406000E-7	2.451230E-3
1.406500E-7	2.540303E-3
1.407000E-7	2.622525E-3
1.407500E-7	2.733867E-3
1.408000E-7	2.828079E-3
1.408500E-7	2.942847E-3
1.409000E-7	3.013078E-3
1.409500E-7	3.076457E-3
1.410000E-7	3.134697E-3
1.410500E-7	3.196363E-3
1.411000E-7	3.256317E-3
1.411500E-7	3.244326E-3
1.412000E-7	3.252891E-3
1.412500E-7	3.259742E-3
1.413000E-7	3.252891E-3
1.413500E-7	3.276872E-3
1.414000E-7	3.304279E-3
1.414500E-7	3.369371E-3
1.415000E-7	3.453306E-3
1.415500E-7	3.549231E-3
1.416000E-7	3.646869E-3
1.416500E-7	3.766776E-3
1.417000E-7	3.848997E-3
1.417500E-7	3.931219E-3
1.418000E-7	3.932932E-3
1.418500E-7	3.884969E-3
1.419000E-7	3.840433E-3
1.419500E-7	3.759924E-3
1.420000E-7	3.645156E-3
1.420500E-7	3.516685E-3
1.421000E-7	3.407056E-3
1.421500E-7	3.317983E-3
1.422000E-7	3.249465E-3
1.422500E-7	3.208354E-3
1.423000E-7	3.191224E-3
1.423500E-7	3.198076E-3
1.424000E-7	3.246039E-3
1.424500E-7	3.283724E-3
1.425000E-7	3.299140E-3
1.425500E-7	3.294001E-3
1.426000E-7	3.273446E-3
1.426500E-7	3.258030E-3
1.427000E-7	3.222058E-3
1.427500E-7	3.150114E-3
1.428000E-7	3.083309E-3
1.428500E-7	3.009652E-3
1.429000E-7	2.941134E-3
1.429500E-7	2.894884E-3
1.430000E-7	2.869190E-3
1.430500E-7	2.867477E-3
1.431000E-7	2.879468E-3
1.431500E-7	2.951411E-3
1.432000E-7	3.035346E-3
1.432500E-7	3.146688E-3
1.433000E-7	3.300853E-3
1.433500E-7	3.434463E-3
1.434000E-7	3.564648E-3
1.434500E-7	3.675989E-3
1.435000E-7	3.739368E-3
1.435500E-7	3.751359E-3
1.436000E-7	3.744507E-3
1.436500E-7	3.698258E-3
1.437000E-7	3.641730E-3
1.437500E-7	3.545805E-3
1.438000E-7	3.427612E-3
1.438500E-7	3.305992E-3
1.439000E-7	3.220345E-3
1.439500E-7	3.132984E-3
1.440000E-7	3.119281E-3
1.440500E-7	3.151827E-3
1.441000E-7	3.234048E-3
1.441500E-7	3.276872E-3
1.442000E-7	3.355668E-3
1.442500E-7	3.434463E-3
1.443000E-7	3.516685E-3
1.443500E-7	3.573212E-3
1.444000E-7	3.598907E-3
1.444500E-7	3.604045E-3
1.445000E-7	3.578351E-3
1.445500E-7	3.545805E-3
1.446000E-7	3.485852E-3
1.446500E-7	3.412195E-3
1.447000E-7	3.324835E-3
1.447500E-7	3.280298E-3
1.448000E-7	3.203215E-3
1.448500E-7	3.175808E-3
1.449000E-7	3.180947E-3
1.449500E-7	3.186086E-3
1.450000E-7	3.222058E-3
1.450500E-7	3.259742E-3
1.451000E-7	3.275159E-3
1.451500E-7	3.302566E-3
1.452000E-7	3.336825E-3
1.452500E-7	3.355668E-3
1.453000E-7	3.348816E-3
1.453500E-7	3.372797E-3
1.454000E-7	3.371084E-3
1.454500E-7	3.359094E-3
1.455000E-7	3.335112E-3
1.455500E-7	3.321409E-3
1.456000E-7	3.287150E-3
1.456500E-7	3.276872E-3
1.457000E-7	3.259742E-3
1.457500E-7	3.264881E-3
1.458000E-7	3.294001E-3
1.458500E-7	3.294001E-3
1.459000E-7	3.276872E-3
1.459500E-7	3.288863E-3
1.460000E-7	3.254604E-3
1.460500E-7	3.210067E-3
1.461000E-7	3.170669E-3
1.461500E-7	3.115855E-3
1.462000E-7	3.062753E-3
1.462500E-7	3.033633E-3
1.463000E-7	3.011365E-3
1.463500E-7	2.961689E-3
1.464000E-7	2.917152E-3
1.464500E-7	2.850347E-3
1.465000E-7	2.792107E-3
1.465500E-7	2.730441E-3
1.466000E-7	2.661923E-3
1.466500E-7	2.649932E-3
1.467000E-7	2.656784E-3
1.467500E-7	2.682478E-3
1.468000E-7	2.704747E-3
1.468500E-7	2.747570E-3
1.469000E-7	2.774978E-3
1.469500E-7	2.846922E-3
1.470000E-7	2.908588E-3
1.470500E-7	2.970254E-3
1.471000E-7	3.037059E-3
1.471500E-7	3.100438E-3
1.472000E-7	3.146688E-3
1.472500E-7	3.191224E-3
1.473000E-7	3.251178E-3
1.473500E-7	3.302566E-3
1.474000E-7	3.335112E-3
1.474500E-7	3.333399E-3
1.475000E-7	3.338538E-3
1.475500E-7	3.305992E-3
1.476000E-7	3.280298E-3
1.476500E-7	3.292289E-3
1.477000E-7	3.295714E-3
1.477500E-7	3.287150E-3
1.478000E-7	3.300853E-3
1.478500E-7	3.326548E-3
1.479000E-7	3.290576E-3
1.479500E-7	3.247752E-3
1.480000E-7	3.208354E-3
1.480500E-7	3.172382E-3
1.481000E-7	3.097012E-3
1.481500E-7	3.030207E-3
1.482000E-7	2.965115E-3
1.482500E-7	2.912014E-3
1.483000E-7	2.908588E-3
1.483500E-7	2.924004E-3
1.484000E-7	2.942847E-3
1.484500E-7	3.007939E-3
1.485000E-7	3.064466E-3
1.485500E-7	3.098725E-3
1.486000E-7	3.151827E-3
1.486500E-7	3.194650E-3
1.487000E-7	3.165530E-3
1.487500E-7	3.141549E-3
1.488000E-7	3.112429E-3
1.488500E-7	3.079883E-3
1.489000E-7	3.043911E-3
1.489500E-7	3.026781E-3
1.490000E-7	3.011365E-3
1.490500E-7	3.011365E-3
1.491000E-7	3.028494E-3
1.491500E-7	3.050763E-3
1.492000E-7	3.062753E-3
1.492500E-7	3.052476E-3
1.493000E-7	3.052476E-3
1.493500E-7	3.030207E-3
1.494000E-7	2.982245E-3
1.494500E-7	2.864051E-3
1.495000E-7	2.773265E-3
1.495500E-7	2.643080E-3
1.496000E-7	2.495767E-3
1.496500E-7	2.362157E-3
1.497000E-7	2.288500E-3
1.497500E-7	2.228547E-3
1.498000E-7	2.202852E-3
1.498500E-7	2.247389E-3
1.499000E-7	2.326185E-3
1.499500E-7	2.408406E-3
1.500000E-7	2.533452E-3
1.500500E-7	2.682478E-3
1.501000E-7	2.807524E-3
1.501500E-7	2.920578E-3
1.502000E-7	3.019929E-3
1.502500E-7	3.083309E-3
1.503000E-7	3.131271E-3
1.503500E-7	3.127845E-3
1.504000E-7	3.086735E-3
1.504500E-7	3.069605E-3
1.505000E-7	3.014791E-3
1.505500E-7	2.968541E-3
1.506000E-7	2.942847E-3
1.506500E-7	2.934282E-3
1.507000E-7	2.966828E-3
1.507500E-7	2.975393E-3
1.508000E-7	2.999374E-3
1.508500E-7	2.995948E-3
1.509000E-7	3.006226E-3
1.509500E-7	2.989096E-3
1.510000E-7	2.924004E-3
1.510500E-7	2.898310E-3
1.511000E-7	2.894884E-3
1.511500E-7	2.908588E-3
1.512000E-7	2.888032E-3
1.512500E-7	2.831505E-3
1.513000E-7	2.768126E-3
1.513500E-7	2.721876E-3
1.514000E-7	2.622525E-3
1.514500E-7	2.540303E-3
1.515000E-7	2.468360E-3
1.515500E-7	2.423823E-3
1.516000E-7	2.386138E-3
1.516500E-7	2.389564E-3
1.517000E-7	2.398129E-3
1.517500E-7	2.451230E-3
1.518000E-7	2.524887E-3
1.518500E-7	2.610534E-3
1.519000E-7	2.727015E-3
1.519500E-7	2.834931E-3
1.520000E-7	2.947986E-3
1.520500E-7	3.073031E-3
1.521000E-7	3.151827E-3
1.521500E-7	3.201502E-3
1.522000E-7	3.204928E-3
1.522500E-7	3.201502E-3
1.523000E-7	3.143262E-3
1.523500E-7	3.045624E-3
1.524000E-7	2.906875E-3
1.524500E-7	2.756135E-3
1.525000E-7	2.658497E-3
1.525500E-7	2.554007E-3
1.526000E-7	2.509470E-3
1.526500E-7	2.514609E-3
1.527000E-7	2.550581E-3
1.527500E-7	2.667062E-3
1.528000E-7	2.809237E-3
1.528500E-7	2.961689E-3
1.529000E-7	3.150114E-3
1.529500E-7	3.338538E-3
1.530000E-7	3.525250E-3
1.530500E-7	3.674276E-3
1.531000E-7	3.802748E-3
1.531500E-7	3.902099E-3
1.532000E-7	3.932932E-3
1.532500E-7	3.907238E-3
1.533000E-7	3.850710E-3
1.533500E-7	3.746220E-3
1.534000E-7	3.583490E-3
1.534500E-7	3.405343E-3
1.535000E-7	3.251178E-3
1.535500E-7	3.078170E-3
1.536000E-7	2.882893E-3
1.536500E-7	2.723589E-3
1.537000E-7	2.591692E-3
1.537500E-7	2.511183E-3
1.538000E-7	2.468360E-3
1.538500E-7	2.406693E-3
1.539000E-7	2.434101E-3
1.539500E-7	2.440952E-3
1.540000E-7	2.507757E-3
1.540500E-7	2.603683E-3
1.541000E-7	2.730441E-3
1.541500E-7	2.822940E-3
1.542000E-7	2.922291E-3
1.542500E-7	2.978819E-3
1.543000E-7	3.016504E-3
1.543500E-7	3.069605E-3
1.544000E-7	3.071318E-3
1.544500E-7	3.081596E-3
1.545000E-7	3.028494E-3
1.545500E-7	2.980532E-3
1.546000E-7	2.898310E-3
1.546500E-7	2.824653E-3
1.547000E-7	2.737293E-3
1.547500E-7	2.622525E-3
1.548000E-7	2.507757E-3
1.548500E-7	2.432388E-3
1.549000E-7	2.392990E-3
1.549500E-7	2.398129E-3
1.550000E-7	2.447804E-3
1.550500E-7	2.584840E-3
1.551000E-7	2.761274E-3
1.551500E-7	2.937708E-3
1.552000E-7	3.129558E-3
1.552500E-7	3.314557E-3
1.553000E-7	3.451593E-3
1.553500E-7	3.566361E-3
1.554000E-7	3.675989E-3
1.554500E-7	3.725665E-3
1.555000E-7	3.742794E-3
1.555500E-7	3.730804E-3
1.556000E-7	3.679415E-3
1.556500E-7	3.580064E-3
1.557000E-7	3.528676E-3
1.557500E-7	3.456732E-3
1.558000E-7	3.345390E-3
1.558500E-7	3.249465E-3
1.559000E-7	3.160391E-3
1.559500E-7	3.091873E-3
1.560000E-7	3.038772E-3
1.560500E-7	2.985670E-3
1.561000E-7	2.942847E-3
1.561500E-7	2.900023E-3
1.562000E-7	2.881181E-3
1.562500E-7	2.872616E-3
1.563000E-7	2.898310E-3
1.563500E-7	2.946273E-3
1.564000E-7	3.026781E-3
1.564500E-7	3.103864E-3
1.565000E-7	3.153540E-3
1.565500E-7	3.192937E-3
1.566000E-7	3.180947E-3
1.566500E-7	3.150114E-3
1.567000E-7	3.090160E-3
1.567500E-7	2.999374E-3
1.568000E-7	2.908588E-3
1.568500E-7	2.831505E-3
1.569000E-7	2.759561E-3
1.569500E-7	2.749283E-3
1.570000E-7	2.745857E-3
1.570500E-7	2.739006E-3
1.571000E-7	2.780116E-3
1.571500E-7	2.814375E-3
1.572000E-7	2.860625E-3
1.572500E-7	2.864051E-3
1.573000E-7	2.855486E-3
1.573500E-7	2.840070E-3
1.574000E-7	2.776691E-3
1.574500E-7	2.655071E-3
1.575000E-7	2.506044E-3
1.575500E-7	2.392990E-3
1.576000E-7	2.271370E-3
1.576500E-7	2.151464E-3
1.577000E-7	2.029844E-3
1.577500E-7	1.968178E-3
1.578000E-7	1.921928E-3
1.578500E-7	1.933919E-3
1.579000E-7	2.000724E-3
1.579500E-7	2.057252E-3
1.580000E-7	2.125770E-3
1.580500E-7	2.231972E-3
1.581000E-7	2.336462E-3
1.581500E-7	2.420397E-3
1.582000E-7	2.540303E-3
1.582500E-7	2.583127E-3
1.583000E-7	2.631090E-3
1.583500E-7	2.665349E-3
1.584000E-7	2.692756E-3
1.584500E-7	2.708173E-3
1.585000E-7	2.713311E-3
1.585500E-7	2.723589E-3
1.586000E-7	2.727015E-3
1.586500E-7	2.757848E-3
1.587000E-7	2.771552E-3
1.587500E-7	2.788681E-3
1.588000E-7	2.792107E-3
1.588500E-7	2.828079E-3
1.589000E-7	2.860625E-3
1.589500E-7	2.888032E-3
1.590000E-7	2.886319E-3
1.590500E-7	2.876042E-3
1.591000E-7	2.882893E-3
1.591500E-7	2.860625E-3
1.592000E-7	2.843496E-3
1.592500E-7	2.826366E-3
1.593000E-7	2.798959E-3
1.593500E-7	2.737293E-3
1.594000E-7	2.656784E-3
1.594500E-7	2.569424E-3
1.595000E-7	2.514609E-3
1.595500E-7	2.411832E-3
1.596000E-7	2.315907E-3
1.596500E-7	2.226834E-3
1.597000E-7	2.129195E-3
1.597500E-7	2.094936E-3
1.598000E-7	2.076094E-3
1.598500E-7	2.089798E-3
1.599000E-7	2.115492E-3
1.599500E-7	2.160029E-3
1.600000E-7	2.249102E-3
1.600500E-7	2.315907E-3
1.601000E-7	2.408406E-3
1.601500E-7	2.504331E-3
1.602000E-7	2.588266E-3
1.602500E-7	2.661923E-3
1.603000E-7	2.733867E-3
1.603500E-7	2.797246E-3
1.604000E-7	2.828079E-3
1.604500E-7	2.831505E-3
1.605000E-7	2.797246E-3
1.605500E-7	2.730441E-3
1.606000E-7	2.655071E-3
1.606500E-7	2.610534E-3
1.607000E-7	2.555720E-3
1.607500E-7	2.452943E-3
1.608000E-7	2.389564E-3
1.608500E-7	2.329611E-3
1.609000E-7	2.291926E-3
1.609500E-7	2.302203E-3
1.610000E-7	2.276509E-3
1.610500E-7	2.293639E-3
1.611000E-7	2.315907E-3
1.611500E-7	2.367295E-3
1.612000E-7	2.422110E-3
1.612500E-7	2.516322E-3
1.613000E-7	2.605396E-3
1.613500E-7	2.667062E-3
1.614000E-7	2.732154E-3
1.614500E-7	2.831505E-3
1.615000E-7	2.836644E-3
1.615500E-7	2.822940E-3
1.616000E-7	2.800672E-3
1.616500E-7	2.771552E-3
1.617000E-7	2.739006E-3
1.617500E-7	2.685904E-3
1.618000E-7	2.631090E-3
1.618500E-7	2.595118E-3
1.619000E-7	2.576275E-3
1.619500E-7	2.545442E-3
1.620000E-7	2.540303E-3
1.620500E-7	2.554007E-3
1.621000E-7	2.559146E-3
1.621500E-7	2.596831E-3
1.622000E-7	2.598544E-3
1.622500E-7	2.577988E-3
1.623000E-7	2.555720E-3
1.623500E-7	2.530026E-3
1.624000E-7	2.519748E-3
1.624500E-7	2.543729E-3
1.625000E-7	2.557433E-3
1.625500E-7	2.579701E-3
1.626000E-7	2.624238E-3
1.626500E-7	2.720163E-3
1.627000E-7	2.850347E-3
1.627500E-7	2.970254E-3
1.628000E-7	3.098725E-3
1.628500E-7	3.213493E-3
1.629000E-7	3.309418E-3
1.629500E-7	3.357381E-3
1.630000E-7	3.398491E-3
1.630500E-7	3.400204E-3
1.631000E-7	3.336825E-3
1.631500E-7	3.266594E-3
1.632000E-7	3.182660E-3
1.632500E-7	3.112429E-3
1.633000E-7	3.073031E-3
1.633500E-7	3.061040E-3
1.634000E-7	3.035346E-3
1.634500E-7	3.028494E-3
1.635000E-7	3.059327E-3
1.635500E-7	3.095299E-3
1.636000E-7	3.109003E-3
1.636500E-7	3.126132E-3
1.637000E-7	3.122706E-3
1.637500E-7	3.066179E-3
1.638000E-7	3.009652E-3
1.638500E-7	2.985670E-3
1.639000E-7	2.947986E-3
1.639500E-7	2.888032E-3
1.640000E-7	2.831505E-3
1.640500E-7	2.817801E-3
1.641000E-7	2.802385E-3
1.641500E-7	2.822940E-3
1.642000E-7	2.858912E-3
1.642500E-7	2.901736E-3
1.643000E-7	2.963402E-3
1.643500E-7	2.994235E-3
1.644000E-7	2.994235E-3
1.644500E-7	3.019929E-3
1.645000E-7	3.002800E-3
1.645500E-7	2.930856E-3
1.646000E-7	2.877755E-3
1.646500E-7	2.869190E-3
1.647000E-7	2.836644E-3
1.647500E-7	2.771552E-3
1.648000E-7	2.764700E-3
1.648500E-7	2.762987E-3
1.649000E-7	2.831505E-3
1.649500E-7	2.891458E-3
1.650000E-7	2.949699E-3
1.650500E-7	3.002800E-3
1.651000E-7	3.045624E-3
1.651500E-7	3.055901E-3
1.652000E-7	3.018217E-3
1.652500E-7	2.992522E-3
1.653000E-7	2.924004E-3
1.653500E-7	2.828079E-3
1.654000E-7	2.684191E-3
1.654500E-7	2.564285E-3
1.655000E-7	2.427249E-3
1.655500E-7	2.309055E-3
1.656000E-7	2.274796E-3
1.656500E-7	2.293639E-3
1.657000E-7	2.351879E-3
1.657500E-7	2.420397E-3
1.658000E-7	2.547155E-3
1.658500E-7	2.675626E-3
1.659000E-7	2.776691E-3
1.659500E-7	2.853773E-3
1.660000E-7	2.913727E-3
1.660500E-7	2.934282E-3
1.661000E-7	2.941134E-3
1.661500E-7	2.886319E-3
1.662000E-7	2.828079E-3
1.662500E-7	2.742432E-3
1.663000E-7	2.658497E-3
1.663500E-7	2.581414E-3
1.664000E-7	2.497480E-3
1.664500E-7	2.439239E-3
1.665000E-7	2.384425E-3
1.665500E-7	2.353592E-3
1.666000E-7	2.324472E-3
1.666500E-7	2.334749E-3
1.667000E-7	2.357018E-3
1.667500E-7	2.404980E-3
1.668000E-7	2.447804E-3
1.668500E-7	2.480350E-3
1.669000E-7	2.507757E-3
1.669500E-7	2.559146E-3
1.670000E-7	2.665349E-3
1.670500E-7	2.783542E-3
1.671000E-7	2.906875E-3
1.671500E-7	3.009652E-3
1.672000E-7	3.114142E-3
1.672500E-7	3.222058E-3
1.673000E-7	3.294001E-3
1.673500E-7	3.299140E-3
1.674000E-7	3.263168E-3
1.674500E-7	3.203215E-3
1.675000E-7	3.105577E-3
1.675500E-7	2.982245E-3
1.676000E-7	2.802385E-3
1.676500E-7	2.668775E-3
1.677000E-7	2.555720E-3
1.677500E-7	2.432388E-3
1.678000E-7	2.350166E-3
1.678500E-7	2.327898E-3
1.679000E-7	2.336462E-3
1.679500E-7	2.379286E-3
1.680000E-7	2.483776E-3
1.680500E-7	2.620812E-3
1.681000E-7	2.769839E-3
1.681500E-7	2.896597E-3
1.682000E-7	2.994235E-3
1.682500E-7	3.052476E-3
1.683000E-7	3.057614E-3
1.683500E-7	3.038772E-3
1.684000E-7	2.987383E-3
1.684500E-7	2.905162E-3
1.685000E-7	2.797246E-3
1.685500E-7	2.706460E-3
1.686000E-7	2.622525E-3
1.686500E-7	2.542016E-3
1.687000E-7	2.531739E-3
1.687500E-7	2.533452E-3
1.688000E-7	2.548868E-3
1.688500E-7	2.598544E-3
1.689000E-7	2.656784E-3
1.689500E-7	2.740719E-3
1.690000E-7	2.836644E-3
1.690500E-7	2.917152E-3
1.691000E-7	2.983958E-3
1.691500E-7	3.062753E-3
1.692000E-7	3.132984E-3
1.692500E-7	3.210067E-3
1.693000E-7	3.288863E-3
1.693500E-7	3.302566E-3
1.694000E-7	3.302566E-3
1.694500E-7	3.278585E-3
1.695000E-7	3.235761E-3
1.695500E-7	3.143262E-3
1.696000E-7	3.052476E-3
1.696500E-7	2.982245E-3
1.697000E-7	2.898310E-3
1.697500E-7	2.843496E-3
1.698000E-7	2.773265E-3
1.698500E-7	2.740719E-3
1.699000E-7	2.692756E-3
1.699500E-7	2.665349E-3
1.700000E-7	2.651645E-3
1.700500E-7	2.661923E-3
1.701000E-7	2.658497E-3
1.701500E-7	2.637942E-3
1.702000E-7	2.588266E-3
1.702500E-7	2.557433E-3
1.703000E-7	2.524887E-3
1.703500E-7	2.483776E-3
1.704000E-7	2.475211E-3
1.704500E-7	2.464934E-3
1.705000E-7	2.494054E-3
1.705500E-7	2.530026E-3
1.706000E-7	2.586553E-3
1.706500E-7	2.624238E-3
1.707000E-7	2.667062E-3
1.707500E-7	2.727015E-3
1.708000E-7	2.785255E-3
1.708500E-7	2.819514E-3
1.709000E-7	2.860625E-3
1.709500E-7	2.877755E-3
1.710000E-7	2.864051E-3
1.710500E-7	2.857199E-3
1.711000E-7	2.881181E-3
1.711500E-7	2.918865E-3
1.712000E-7	2.953124E-3
1.712500E-7	2.995948E-3
1.713000E-7	3.038772E-3
1.713500E-7	3.064466E-3
1.714000E-7	3.083309E-3
1.714500E-7	3.091873E-3
1.715000E-7	3.045624E-3
1.715500E-7	2.989096E-3
1.716000E-7	2.929143E-3
1.716500E-7	2.864051E-3
1.717000E-7	2.800672E-3
1.717500E-7	2.762987E-3
1.718000E-7	2.744144E-3
1.718500E-7	2.764700E-3
1.719000E-7	2.786968E-3
1.719500E-7	2.857199E-3
1.720000E-7	2.959976E-3
1.720500E-7	3.037059E-3
1.721000E-7	3.129558E-3
1.721500E-7	3.237474E-3
1.722000E-7	3.288863E-3
1.722500E-7	3.336825E-3
1.723000E-7	3.348816E-3
1.723500E-7	3.324835E-3
1.724000E-7	3.264881E-3
1.724500E-7	3.163817E-3
1.725000E-7	3.074744E-3
1.725500E-7	2.937708E-3
1.726000E-7	2.840070E-3
1.726500E-7	2.785255E-3
1.727000E-7	2.725302E-3
1.727500E-7	2.682478E-3
1.728000E-7	2.643080E-3
1.728500E-7	2.636229E-3
1.729000E-7	2.646506E-3
1.729500E-7	2.675626E-3
1.730000E-7	2.684191E-3
1.730500E-7	2.715024E-3
1.731000E-7	2.793820E-3
1.731500E-7	2.814375E-3
1.732000E-7	2.877755E-3
1.732500E-7	2.956550E-3
1.733000E-7	3.040485E-3
1.733500E-7	3.083309E-3
1.734000E-7	3.127845E-3
1.734500E-7	3.170669E-3
1.735000E-7	3.211780E-3
1.735500E-7	3.204928E-3
1.736000E-7	3.191224E-3
1.736500E-7	3.144975E-3
1.737000E-7	3.054188E-3
1.737500E-7	2.954837E-3
1.738000E-7	2.764700E-3
1.738500E-7	2.605396E-3
1.739000E-7	2.494054E-3
1.739500E-7	2.403267E-3
1.740000E-7	2.341601E-3
1.740500E-7	2.336462E-3
1.741000E-7	2.372434E-3
1.741500E-7	2.442665E-3
1.742000E-7	2.554007E-3
1.742500E-7	2.641367E-3
1.743000E-7	2.713311E-3
1.743500E-7	2.766413E-3
1.744000E-7	2.798959E-3
1.744500E-7	2.793820E-3
1.745000E-7	2.759561E-3
1.745500E-7	2.704747E-3
1.746000E-7	2.636229E-3
1.746500E-7	2.548868E-3
1.747000E-7	2.428962E-3
1.747500E-7	2.357018E-3
1.748000E-7	2.334749E-3
1.748500E-7	2.348453E-3
1.749000E-7	2.416971E-3
1.749500E-7	2.497480E-3
1.750000E-7	2.589979E-3
1.750500E-7	2.716737E-3
1.751000E-7	2.864051E-3
1.751500E-7	3.021642E-3
1.752000E-7	3.162104E-3
1.752500E-7	3.299140E-3
1.753000E-7	3.386501E-3
1.753500E-7	3.456732E-3
1.754000E-7	3.489278E-3
1.754500E-7	3.514972E-3
1.755000E-7	3.533814E-3
1.755500E-7	3.552657E-3
1.756000E-7	3.562935E-3
1.756500E-7	3.540666E-3
1.757000E-7	3.538953E-3
1.757500E-7	3.513259E-3
1.758000E-7	3.460158E-3
1.758500E-7	3.432750E-3
1.759000E-7	3.407056E-3
1.759500E-7	3.360807E-3
1.760000E-7	3.321409E-3
1.760500E-7	3.288863E-3
1.761000E-7	3.261455E-3
1.761500E-7	3.276872E-3
1.762000E-7	3.276872E-3
1.762500E-7	3.283724E-3
1.763000E-7	3.256317E-3
1.763500E-7	3.266594E-3
1.764000E-7	3.222058E-3
1.764500E-7	3.144975E-3
1.765000E-7	3.086735E-3
1.765500E-7	3.018217E-3
1.766000E-7	2.973680E-3
1.766500E-7	2.915440E-3
1.767000E-7	2.908588E-3
1.767500E-7	2.915440E-3
1.768000E-7	2.954837E-3
1.768500E-7	3.038772E-3
1.769000E-7	3.141549E-3
1.769500E-7	3.304279E-3
1.770000E-7	3.492704E-3
1.770500E-7	3.658860E-3
1.771000E-7	3.789044E-3
1.771500E-7	3.888395E-3
1.772000E-7	3.922654E-3
1.772500E-7	3.905525E-3
1.773000E-7	3.874692E-3
1.773500E-7	3.771915E-3
1.774000E-7	3.669138E-3
1.774500E-7	3.533814E-3
1.775000E-7	3.401917E-3
1.775500E-7	3.223771E-3
1.776000E-7	3.061040E-3
1.776500E-7	2.929143E-3
1.777000E-7	2.812663E-3
1.777500E-7	2.759561E-3
1.778000E-7	2.737293E-3
1.778500E-7	2.742432E-3
1.779000E-7	2.817801E-3
1.779500E-7	2.893171E-3
1.780000E-7	2.985670E-3
1.780500E-7	3.093586E-3
1.781000E-7	3.228909E-3
1.781500E-7	3.323122E-3
1.782000E-7	3.412195E-3
1.782500E-7	3.465296E-3
1.783000E-7	3.501268E-3
1.783500E-7	3.518398E-3
1.784000E-7	3.516685E-3
1.784500E-7	3.468722E-3
1.785000E-7	3.389927E-3
1.785500E-7	3.294001E-3
1.786000E-7	3.189512E-3
1.786500E-7	3.067892E-3
1.787000E-7	2.929143E-3
1.787500E-7	2.749283E-3
1.788000E-7	2.612247E-3
1.788500E-7	2.512896E-3
1.789000E-7	2.447804E-3
1.789500E-7	2.428962E-3
1.790000E-7	2.473498E-3
1.790500E-7	2.545442E-3
1.791000E-7	2.601970E-3
1.791500E-7	2.704747E-3
1.792000E-7	2.870903E-3
1.792500E-7	2.999374E-3
1.793000E-7	3.107290E-3
1.793500E-7	3.177521E-3
1.794000E-7	3.239187E-3
1.794500E-7	3.275159E-3
1.795000E-7	3.268307E-3
1.795500E-7	3.261455E-3
1.796000E-7	3.186086E-3
1.796500E-7	3.122706E-3
1.797000E-7	3.061040E-3
1.797500E-7	2.971967E-3
1.798000E-7	2.874329E-3
1.798500E-7	2.850347E-3
1.799000E-7	2.780116E-3
1.799500E-7	2.747570E-3
1.800000E-7	2.694469E-3
1.800500E-7	2.697895E-3
1.801000E-7	2.730441E-3
1.801500E-7	2.766413E-3
1.802000E-7	2.834931E-3
1.802500E-7	2.882893E-3
1.803000E-7	2.922291E-3
1.803500E-7	2.971967E-3
1.804000E-7	3.009652E-3
1.804500E-7	3.021642E-3
1.805000E-7	3.040485E-3
1.805500E-7	3.073031E-3
1.806000E-7	3.090160E-3
1.806500E-7	3.127845E-3
1.807000E-7	3.122706E-3
1.807500E-7	3.150114E-3
1.808000E-7	3.117568E-3
1.808500E-7	3.103864E-3
1.809000E-7	3.119281E-3
1.809500E-7	3.115855E-3
1.810000E-7	3.100438E-3
1.810500E-7	3.110716E-3
1.811000E-7	3.098725E-3
1.811500E-7	3.066179E-3
1.812000E-7	3.091873E-3
1.812500E-7	3.074744E-3
1.813000E-7	3.086735E-3
1.813500E-7	3.074744E-3
1.814000E-7	3.083309E-3
1.814500E-7	3.057614E-3
1.815000E-7	2.990809E-3
1.815500E-7	2.934282E-3
1.816000E-7	2.874329E-3
1.816500E-7	2.795533E-3
1.817000E-7	2.715024E-3
1.817500E-7	2.651645E-3
1.818000E-7	2.586553E-3
1.818500E-7	2.502619E-3
1.819000E-7	2.446091E-3
1.819500E-7	2.386138E-3
1.820000E-7	2.401554E-3
1.820500E-7	2.420397E-3
1.821000E-7	2.435813E-3
1.821500E-7	2.490628E-3
1.822000E-7	2.535165E-3
1.822500E-7	2.619099E-3
1.823000E-7	2.696182E-3
1.823500E-7	2.768126E-3
1.824000E-7	2.819514E-3
1.824500E-7	2.833218E-3
1.825000E-7	2.865764E-3
1.825500E-7	2.882893E-3
1.826000E-7	2.831505E-3
1.826500E-7	2.800672E-3
1.827000E-7	2.800672E-3
1.827500E-7	2.776691E-3
1.828000E-7	2.785255E-3
1.828500E-7	2.785255E-3
1.829000E-7	2.788681E-3
1.829500E-7	2.805811E-3
1.830000E-7	2.846922E-3
1.830500E-7	2.877755E-3
1.831000E-7	2.912014E-3
1.831500E-7	2.953124E-3
1.832000E-7	2.949699E-3
1.832500E-7	2.992522E-3
1.833000E-7	3.002800E-3
1.833500E-7	3.021642E-3
1.834000E-7	3.033633E-3
1.834500E-7	3.083309E-3
1.835000E-7	3.122706E-3
1.835500E-7	3.165530E-3
1.836000E-7	3.199789E-3
1.836500E-7	3.249465E-3
1.837000E-7	3.319696E-3
1.837500E-7	3.359094E-3
1.838000E-7	3.359094E-3
1.838500E-7	3.360807E-3
1.839000E-7	3.326548E-3
1.839500E-7	3.295714E-3
1.840000E-7	3.249465E-3
1.840500E-7	3.208354E-3
1.841000E-7	3.150114E-3
1.841500E-7	3.120994E-3
1.842000E-7	3.144975E-3
1.842500E-7	3.136410E-3
1.843000E-7	3.155253E-3
1.843500E-7	3.201502E-3
1.844000E-7	3.256317E-3
1.844500E-7	3.294001E-3
1.845000E-7	3.294001E-3
1.845500E-7	3.282011E-3
1.846000E-7	3.215206E-3
1.846500E-7	3.120994E-3
1.847000E-7	2.983958E-3
1.847500E-7	2.867477E-3
1.848000E-7	2.723589E-3
1.848500E-7	2.591692E-3
1.849000E-7	2.483776E-3
1.849500E-7	2.422110E-3
1.850000E-7	2.358731E-3
1.850500E-7	2.369008E-3
1.851000E-7	2.399842E-3
1.851500E-7	2.476924E-3
1.852000E-7	2.588266E-3
1.852500E-7	2.701321E-3
1.853000E-7	2.812663E-3
1.853500E-7	2.929143E-3
1.854000E-7	3.021642E-3
1.854500E-7	3.069605E-3
1.855000E-7	3.095299E-3
1.855500E-7	3.052476E-3
1.856000E-7	3.013078E-3
1.856500E-7	2.941134E-3
1.857000E-7	2.893171E-3
1.857500E-7	2.865764E-3
1.858000E-7	2.816088E-3
1.858500E-7	2.762987E-3
1.859000E-7	2.727015E-3
1.859500E-7	2.732154E-3
1.860000E-7	2.723589E-3
1.860500E-7	2.732154E-3
1.861000E-7	2.781829E-3
1.861500E-7	2.840070E-3
1.862000E-7	2.901736E-3
1.862500E-7	2.999374E-3
1.863000E-7	3.109003E-3
1.863500E-7	3.174095E-3
1.864000E-7	3.199789E-3
1.864500E-7	3.264881E-3
1.865000E-7	3.321409E-3
1.865500E-7	3.350529E-3
1.866000E-7	3.355668E-3
1.866500E-7	3.347103E-3
1.867000E-7	3.362519E-3
1.867500E-7	3.371084E-3
1.868000E-7	3.365945E-3
1.868500E-7	3.381362E-3
1.869000E-7	3.395066E-3
1.869500E-7	3.364232E-3
1.870000E-7	3.338538E-3
1.870500E-7	3.312844E-3
1.871000E-7	3.242613E-3
1.871500E-7	3.170669E-3
1.872000E-7	3.083309E-3
1.872500E-7	2.985670E-3
1.873000E-7	2.927430E-3
1.873500E-7	2.884606E-3
1.874000E-7	2.850347E-3
1.874500E-7	2.821227E-3
1.875000E-7	2.804098E-3
1.875500E-7	2.816088E-3
1.876000E-7	2.853773E-3
1.876500E-7	2.858912E-3
1.877000E-7	2.869190E-3
1.877500E-7	2.867477E-3
1.878000E-7	2.829792E-3
1.878500E-7	2.785255E-3
1.879000E-7	2.744144E-3
1.879500E-7	2.704747E-3
1.880000E-7	2.663636E-3
1.880500E-7	2.694469E-3
1.881000E-7	2.742432E-3
1.881500E-7	2.786968E-3
1.882000E-7	2.831505E-3
1.882500E-7	2.876042E-3
1.883000E-7	2.917152E-3
1.883500E-7	2.882893E-3
1.884000E-7	2.865764E-3
1.884500E-7	2.848634E-3
1.885000E-7	2.836644E-3
1.885500E-7	2.781829E-3
1.886000E-7	2.730441E-3
1.886500E-7	2.660210E-3
1.887000E-7	2.591692E-3
1.887500E-7	2.567711E-3
1.888000E-7	2.632803E-3
1.888500E-7	2.703034E-3
1.889000E-7	2.764700E-3
1.889500E-7	2.852060E-3
1.890000E-7	2.937708E-3
1.890500E-7	2.985670E-3
1.891000E-7	3.021642E-3
1.891500E-7	3.031920E-3
1.892000E-7	3.016504E-3
1.892500E-7	3.006226E-3
1.893000E-7	2.956550E-3
1.893500E-7	2.915440E-3
1.894000E-7	2.920578E-3
1.894500E-7	2.941134E-3
1.895000E-7	2.970254E-3
1.895500E-7	2.983958E-3
1.896000E-7	2.985670E-3
1.896500E-7	2.980532E-3
1.897000E-7	2.951411E-3
1.897500E-7	2.920578E-3
1.898000E-7	2.893171E-3
1.898500E-7	2.867477E-3
1.899000E-7	2.821227E-3
1.899500E-7	2.756135E-3
1.900000E-7	2.733867E-3
1.900500E-7	2.694469E-3
1.901000E-7	2.673914E-3
1.901500E-7	2.656784E-3
1.902000E-7	2.644793E-3
1.902500E-7	2.656784E-3
1.903000E-7	2.672201E-3
1.903500E-7	2.708173E-3
1.904000E-7	2.716737E-3
1.904500E-7	2.737293E-3
1.905000E-7	2.727015E-3
1.905500E-7	2.725302E-3
1.906000E-7	2.727015E-3
1.906500E-7	2.750996E-3
1.907000E-7	2.786968E-3
1.907500E-7	2.786968E-3
1.908000E-7	2.814375E-3
1.908500E-7	2.862338E-3
1.909000E-7	2.882893E-3
1.909500E-7	2.874329E-3
1.910000E-7	2.876042E-3
1.910500E-7	2.836644E-3
1.911000E-7	2.809237E-3
1.911500E-7	2.793820E-3
1.912000E-7	2.761274E-3
1.912500E-7	2.750996E-3
1.913000E-7	2.735580E-3
1.913500E-7	2.730441E-3
1.914000E-7	2.754422E-3
1.914500E-7	2.805811E-3
1.915000E-7	2.874329E-3
1.915500E-7	2.949699E-3
1.916000E-7	3.019929E-3
1.916500E-7	3.091873E-3
1.917000E-7	3.158678E-3
1.917500E-7	3.204928E-3
1.918000E-7	3.232335E-3
1.918500E-7	3.256317E-3
1.919000E-7	3.228909E-3
1.919500E-7	3.215206E-3
1.920000E-7	3.170669E-3
1.920500E-7	3.127845E-3
1.921000E-7	3.086735E-3
1.921500E-7	3.028494E-3
1.922000E-7	2.982245E-3
1.922500E-7	2.944560E-3
1.923000E-7	2.953124E-3
1.923500E-7	2.941134E-3
1.924000E-7	2.918865E-3
1.924500E-7	2.896597E-3
1.925000E-7	2.860625E-3
1.925500E-7	2.805811E-3
1.926000E-7	2.766413E-3
1.926500E-7	2.667062E-3
1.927000E-7	2.627664E-3
1.927500E-7	2.565998E-3
1.928000E-7	2.488915E-3
1.928500E-7	2.456369E-3
1.929000E-7	2.461508E-3
1.929500E-7	2.482063E-3
1.930000E-7	2.542016E-3
1.930500E-7	2.622525E-3
1.931000E-7	2.735580E-3
1.931500E-7	2.876042E-3
1.932000E-7	3.009652E-3
1.932500E-7	3.097012E-3
1.933000E-7	3.172382E-3
1.933500E-7	3.215206E-3
1.934000E-7	3.199789E-3
1.934500E-7	3.177521E-3
1.935000E-7	3.088447E-3
1.935500E-7	2.944560E-3
1.936000E-7	2.793820E-3
1.936500E-7	2.625951E-3
1.937000E-7	2.464934E-3
1.937500E-7	2.326185E-3
1.938000E-7	2.237111E-3
1.938500E-7	2.189149E-3
1.939000E-7	2.259380E-3
1.939500E-7	2.387851E-3
1.940000E-7	2.583127E-3
1.940500E-7	2.783542E-3
1.941000E-7	3.028494E-3
1.941500E-7	3.220345E-3
1.942000E-7	3.364232E-3
1.942500E-7	3.472148E-3
1.943000E-7	3.490991E-3
1.943500E-7	3.420760E-3
1.944000E-7	3.304279E-3
1.944500E-7	3.148401E-3
1.945000E-7	2.941134E-3
1.945500E-7	2.728728E-3
1.946000E-7	2.524887E-3
1.946500E-7	2.386138E-3
1.947000E-7	2.273083E-3
1.947500E-7	2.201139E-3
1.948000E-7	2.178871E-3
1.948500E-7	2.211417E-3
1.949000E-7	2.300490E-3
1.949500E-7	2.435813E-3
1.950000E-7	2.586553E-3
1.950500E-7	2.708173E-3
1.951000E-7	2.821227E-3
1.951500E-7	2.903449E-3
1.952000E-7	2.915440E-3
1.952500E-7	2.912014E-3
1.953000E-7	2.927430E-3
1.953500E-7	2.947986E-3
1.954000E-7	2.944560E-3
1.954500E-7	2.934282E-3
1.955000E-7	2.917152E-3
1.955500E-7	2.900023E-3
1.956000E-7	2.884606E-3
1.956500E-7	2.843496E-3
1.957000E-7	2.841783E-3
1.957500E-7	2.819514E-3
1.958000E-7	2.762987E-3
1.958500E-7	2.732154E-3
1.959000E-7	2.697895E-3
1.959500E-7	2.667062E-3
1.960000E-7	2.644793E-3
1.960500E-7	2.615673E-3
1.961000E-7	2.608821E-3
1.961500E-7	2.619099E-3
1.962000E-7	2.639655E-3
1.962500E-7	2.673914E-3
1.963000E-7	2.696182E-3
1.963500E-7	2.689330E-3
1.964000E-7	2.677339E-3
1.964500E-7	2.660210E-3
1.965000E-7	2.627664E-3
1.965500E-7	2.607108E-3
1.966000E-7	2.552294E-3
1.966500E-7	2.523174E-3
1.967000E-7	2.511183E-3
1.967500E-7	2.499193E-3
1.968000E-7	2.555720E-3
1.968500E-7	2.634516E-3
1.969000E-7	2.733867E-3
1.969500E-7	2.877755E-3
1.970000E-7	3.067892E-3
1.970500E-7	3.234048E-3
1.971000E-7	3.436176E-3
1.971500E-7	3.588629E-3
1.972000E-7	3.691406E-3
1.972500E-7	3.785618E-3
1.973000E-7	3.813025E-3
1.973500E-7	3.783905E-3
1.974000E-7	3.679415E-3
1.974500E-7	3.544092E-3
1.975000E-7	3.401917E-3
1.975500E-7	3.225483E-3
1.976000E-7	3.043911E-3
1.976500E-7	2.840070E-3
1.977000E-7	2.637942E-3
1.977500E-7	2.497480E-3
1.978000E-7	2.358731E-3
1.978500E-7	2.293639E-3
1.979000E-7	2.267944E-3
1.979500E-7	2.278222E-3
1.980000E-7	2.305629E-3
1.980500E-7	2.377573E-3
1.981000E-7	2.470072E-3
1.981500E-7	2.588266E-3
1.982000E-7	2.721876E-3
1.982500E-7	2.869190E-3
1.983000E-7	3.038772E-3
1.983500E-7	3.189512E-3
1.984000E-7	3.305992E-3
1.984500E-7	3.365945E-3
1.985000E-7	3.456732E-3
1.985500E-7	3.453306E-3
1.986000E-7	3.372797E-3
1.986500E-7	3.256317E-3
1.987000E-7	3.144975E-3
1.987500E-7	2.985670E-3
1.988000E-7	2.834931E-3
1.988500E-7	2.704747E-3
1.989000E-7	2.593405E-3
1.989500E-7	2.521461E-3
1.990000E-7	2.506044E-3
1.990500E-7	2.533452E-3
1.991000E-7	2.615673E-3
1.991500E-7	2.715024E-3
1.992000E-7	2.838357E-3
1.992500E-7	2.985670E-3
1.993000E-7	3.073031E-3
1.993500E-7	3.115855E-3
1.994000E-7	3.144975E-3
1.994500E-7	3.062753E-3
1.995000E-7	2.947986E-3
1.995500E-7	2.793820E-3
1.996000E-7	2.660210E-3
1.996500E-7	2.519748E-3
1.997000E-7	2.399842E-3
1.997500E-7	2.293639E-3
1.998000E-7	2.207991E-3
1.998500E-7	2.170306E-3
1.999000E-7	2.168593E-3
1.999500E-7	2.197713E-3
2.000000E-7	2.249102E-3
2.000500E-7	2.322759E-3
