Study Name	VanadiumIrradiated_V3plus
Sample Name	2022-01-04
Run Name	unirradiated_11
Operator	Angus
Date	1/4/2022
Time	13:55
Sign	FIX
Grating Spacing	06.40um
Channel	3
Number Traces	10000
Files in Batch	1
Batch Number	1
dt	50.000001E-12
time stamp (ms)	13:55:59
	
Time	Amplitude
0.000000E+0	-9.267075E-4
5.000000E-11	-8.530506E-4
1.000000E-10	-8.033751E-4
1.500000E-10	-7.262923E-4
2.000000E-10	-6.509225E-4
2.500000E-10	-6.115247E-4
3.000000E-10	-5.892563E-4
3.500000E-10	-5.755527E-4
4.000000E-10	-6.115247E-4
4.500000E-10	-6.389319E-4
5.000000E-10	-7.005981E-4
5.500000E-10	-7.605513E-4
6.000000E-10	-8.290693E-4
6.500000E-10	-9.181427E-4
7.000000E-10	-9.986514E-4
7.500000E-10	-1.070595E-3
8.000000E-10	-1.089438E-3
8.500000E-10	-1.145965E-3
9.000000E-10	-1.151104E-3
9.500000E-10	-1.169946E-3
1.000000E-9	-1.125410E-3
1.050000E-9	-1.039762E-3
1.100000E-9	-9.455499E-4
1.150000E-9	-8.581895E-4
1.200000E-9	-7.143017E-4
1.250000E-9	-5.721268E-4
1.300000E-9	-4.179613E-4
1.350000E-9	-2.723605E-4
1.400000E-9	-1.541670E-4
1.450000E-9	-1.199213E-5
1.500000E-9	4.624817E-5
1.550000E-9	7.879422E-5
1.600000E-9	8.222012E-5
1.650000E-9	4.967407E-5
1.700000E-9	5.137366E-6
1.750000E-9	-9.078784E-5
1.800000E-9	-2.243979E-4
1.850000E-9	-3.648598E-4
1.900000E-9	-4.642109E-4
1.950000E-9	-6.149506E-4
2.000000E-9	-7.365700E-4
2.050000E-9	-8.410600E-4
2.100000E-9	-9.369852E-4
2.150000E-9	-1.010642E-3
2.200000E-9	-1.019207E-3
2.250000E-9	-1.024346E-3
2.300000E-9	-9.986514E-4
2.350000E-9	-9.832348E-4
2.400000E-9	-9.643924E-4
2.450000E-9	-9.164298E-4
2.500000E-9	-8.701801E-4
2.550000E-9	-8.376341E-4
2.600000E-9	-8.376341E-4
2.650000E-9	-7.896715E-4
2.700000E-9	-8.085139E-4
2.750000E-9	-8.136528E-4
2.800000E-9	-8.650413E-4
2.850000E-9	-8.770319E-4
2.900000E-9	-9.095780E-4
2.950000E-9	-9.301334E-4
3.000000E-9	-9.917996E-4
3.050000E-9	-1.043188E-3
3.100000E-9	-1.058605E-3
3.150000E-9	-1.104854E-3
3.200000E-9	-1.099715E-3
3.250000E-9	-1.077447E-3
3.300000E-9	-1.029484E-3
3.350000E-9	-9.866607E-4
3.400000E-9	-9.404111E-4
3.450000E-9	-8.787449E-4
3.500000E-9	-7.930974E-4
3.550000E-9	-7.005981E-4
3.600000E-9	-5.806916E-4
3.650000E-9	-4.676368E-4
3.700000E-9	-3.357397E-4
3.750000E-9	-2.312497E-4
3.800000E-9	-1.301857E-4
3.850000E-9	-2.226983E-5
3.900000E-9	2.397982E-5
3.950000E-9	1.198917E-5
4.000000E-9	2.397982E-5
4.050000E-9	-3.597343E-5
4.100000E-9	-1.404634E-4
4.150000E-9	-2.912030E-4
4.200000E-9	-4.659239E-4
4.250000E-9	-6.337930E-4
4.300000E-9	-7.930974E-4
4.350000E-9	-9.301334E-4
4.400000E-9	-1.034623E-3
4.450000E-9	-1.050040E-3
4.500000E-9	-1.072308E-3
4.550000E-9	-1.041475E-3
4.600000E-9	-9.952255E-4
4.650000E-9	-9.215686E-4
4.700000E-9	-8.461988E-4
4.750000E-9	-7.793938E-4
4.800000E-9	-7.365700E-4
4.850000E-9	-7.262923E-4
4.900000E-9	-7.211535E-4
4.950000E-9	-7.519866E-4
5.000000E-9	-8.016621E-4
5.050000E-9	-8.855967E-4
5.100000E-9	-9.763830E-4
5.150000E-9	-1.058605E-3
5.200000E-9	-1.113419E-3
5.250000E-9	-1.183650E-3
5.300000E-9	-1.216196E-3
5.350000E-9	-1.211057E-3
5.400000E-9	-1.216196E-3
5.450000E-9	-1.190502E-3
5.500000E-9	-1.123697E-3
5.550000E-9	-1.046614E-3
5.600000E-9	-9.661053E-4
5.650000E-9	-9.095780E-4
5.700000E-9	-8.273564E-4
5.750000E-9	-7.674031E-4
5.800000E-9	-6.868945E-4
5.850000E-9	-6.115247E-4
5.900000E-9	-5.704139E-4
5.950000E-9	-5.104606E-4
6.000000E-9	-4.470814E-4
6.050000E-9	-4.265260E-4
6.100000E-9	-4.265260E-4
6.150000E-9	-4.248131E-4
6.200000E-9	-4.333778E-4
6.250000E-9	-4.556462E-4
6.300000E-9	-4.659239E-4
6.350000E-9	-3.974059E-4
6.400000E-9	-3.340267E-4
6.450000E-9	-2.312497E-4
6.500000E-9	-2.912163E-5
6.550000E-9	2.774964E-4
6.600000E-9	7.691131E-4
6.650000E-9	1.473136E-3
6.700000E-9	2.480350E-3
6.750000E-9	3.825016E-3
6.800000E-9	5.565373E-3
6.850000E-9	7.660311E-3
6.900000E-9	1.022288E-2
6.950000E-9	1.311777E-2
7.000000E-9	1.629358E-2
7.050000E-9	1.968693E-2
7.100000E-9	2.316594E-2
7.150000E-9	2.655929E-2
7.200000E-9	2.978991E-2
7.250000E-9	3.271392E-2
7.300000E-9	3.520112E-2
7.350000E-9	3.720699E-2
7.400000E-9	3.869383E-2
7.450000E-9	3.969419E-2
7.500000E-9	4.017553E-2
7.550000E-9	4.030914E-2
7.600000E-9	4.021493E-2
7.650000E-9	4.006076E-2
7.700000E-9	3.994257E-2
7.750000E-9	3.997511E-2
7.800000E-9	4.023034E-2
7.850000E-9	4.075279E-2
7.900000E-9	4.153732E-2
7.950000E-9	4.256338E-2
8.000000E-9	4.374703E-2
8.050000E-9	4.502318E-2
8.100000E-9	4.627877E-2
8.150000E-9	4.739733E-2
8.200000E-9	4.827778E-2
8.250000E-9	4.890815E-2
8.300000E-9	4.911028E-2
8.350000E-9	4.896296E-2
8.400000E-9	4.844565E-2
8.450000E-9	4.758233E-2
8.500000E-9	4.640039E-2
8.550000E-9	4.498207E-2
8.600000E-9	4.333592E-2
8.650000E-9	4.159899E-2
8.700000E-9	3.983123E-2
8.750000E-9	3.808916E-2
8.800000E-9	3.637278E-2
8.850000E-9	3.475233E-2
8.900000E-9	3.328433E-2
8.950000E-9	3.189170E-2
9.000000E-9	3.066694E-2
9.050000E-9	2.960320E-2
9.100000E-9	2.867650E-2
9.150000E-9	2.792108E-2
9.200000E-9	2.725475E-2
9.250000E-9	2.670489E-2
9.300000E-9	2.626980E-2
9.350000E-9	2.592721E-2
9.400000E-9	2.570624E-2
9.450000E-9	2.559319E-2
9.500000E-9	2.557777E-2
9.550000E-9	2.562916E-2
9.600000E-9	2.576791E-2
9.650000E-9	2.595804E-2
9.700000E-9	2.623212E-2
9.750000E-9	2.658327E-2
9.800000E-9	2.699609E-2
9.850000E-9	2.746887E-2
9.900000E-9	2.801187E-2
9.950000E-9	2.860455E-2
1.000000E-8	2.923320E-2
1.005000E-8	2.994237E-2
1.010000E-8	3.069606E-2
1.015000E-8	3.149772E-2
1.020000E-8	3.237475E-2
1.025000E-8	3.326891E-2
1.030000E-8	3.423844E-2
1.035000E-8	3.522682E-2
1.040000E-8	3.623403E-2
1.045000E-8	3.723953E-2
1.050000E-8	3.819022E-2
1.055000E-8	3.898503E-2
1.060000E-8	3.974044E-2
1.065000E-8	4.033483E-2
1.070000E-8	4.070312E-2
1.075000E-8	4.091895E-2
1.080000E-8	4.094807E-2
1.085000E-8	4.079048E-2
1.090000E-8	4.047016E-2
1.095000E-8	3.997854E-2
1.100000E-8	3.937901E-2
1.105000E-8	3.865272E-2
1.110000E-8	3.778082E-2
1.115000E-8	3.682329E-2
1.120000E-8	3.586746E-2
1.125000E-8	3.485168E-2
1.130000E-8	3.382391E-2
1.135000E-8	3.282526E-2
1.140000E-8	3.180948E-2
1.145000E-8	3.079884E-2
1.150000E-8	2.979334E-2
1.155000E-8	2.884950E-2
1.160000E-8	2.791423E-2
1.165000E-8	2.703549E-2
1.170000E-8	2.622012E-2
1.175000E-8	2.542189E-2
1.180000E-8	2.469217E-2
1.185000E-8	2.404810E-2
1.190000E-8	2.352223E-2
1.195000E-8	2.307857E-2
1.200000E-8	2.275654E-2
1.205000E-8	2.251501E-2
1.210000E-8	2.241738E-2
1.215000E-8	2.243964E-2
1.220000E-8	2.255955E-2
1.225000E-8	2.285247E-2
1.230000E-8	2.323617E-2
1.235000E-8	2.373292E-2
1.240000E-8	2.437870E-2
1.245000E-8	2.511356E-2
1.250000E-8	2.594777E-2
1.255000E-8	2.683679E-2
1.260000E-8	2.776692E-2
1.265000E-8	2.866279E-2
1.270000E-8	2.964089E-2
1.275000E-8	3.062926E-2
1.280000E-8	3.153541E-2
1.285000E-8	3.240387E-2
1.290000E-8	3.320725E-2
1.295000E-8	3.395238E-2
1.300000E-8	3.463756E-2
1.305000E-8	3.526621E-2
1.310000E-8	3.580065E-2
1.315000E-8	3.624431E-2
1.320000E-8	3.654921E-2
1.325000E-8	3.678389E-2
1.330000E-8	3.695176E-2
1.335000E-8	3.700828E-2
1.340000E-8	3.694491E-2
1.345000E-8	3.680102E-2
1.350000E-8	3.657491E-2
1.355000E-8	3.618607E-2
1.360000E-8	3.573214E-2
1.365000E-8	3.512918E-2
1.370000E-8	3.444742E-2
1.375000E-8	3.367146E-2
1.380000E-8	3.278586E-2
1.385000E-8	3.181633E-2
1.390000E-8	3.083824E-2
1.395000E-8	2.983102E-2
1.400000E-8	2.880497E-2
1.405000E-8	2.783201E-2
1.410000E-8	2.686762E-2
1.415000E-8	2.593578E-2
1.420000E-8	2.506388E-2
1.425000E-8	2.419542E-2
1.430000E-8	2.338519E-2
1.435000E-8	2.265890E-2
1.440000E-8	2.200627E-2
1.445000E-8	2.142386E-2
1.450000E-8	2.099734E-2
1.455000E-8	2.071642E-2
1.460000E-8	2.053484E-2
1.465000E-8	2.055026E-2
1.470000E-8	2.068044E-2
1.475000E-8	2.092197E-2
1.480000E-8	2.132451E-2
1.485000E-8	2.184525E-2
1.490000E-8	2.243279E-2
1.495000E-8	2.313168E-2
1.500000E-8	2.392820E-2
1.505000E-8	2.476583E-2
1.510000E-8	2.566856E-2
1.515000E-8	2.654045E-2
1.520000E-8	2.745687E-2
1.525000E-8	2.838015E-2
1.530000E-8	2.923492E-2
1.535000E-8	3.006741E-2
1.540000E-8	3.092389E-2
1.545000E-8	3.173411E-2
1.550000E-8	3.247924E-2
1.555000E-8	3.315757E-2
1.560000E-8	3.381363E-2
1.565000E-8	3.439261E-2
1.570000E-8	3.485853E-2
1.575000E-8	3.520969E-2
1.580000E-8	3.545464E-2
1.585000E-8	3.560024E-2
1.590000E-8	3.560024E-2
1.595000E-8	3.551117E-2
1.600000E-8	3.529191E-2
1.605000E-8	3.492020E-2
1.610000E-8	3.438918E-2
1.615000E-8	3.378794E-2
1.620000E-8	3.311989E-2
1.625000E-8	3.236962E-2
1.630000E-8	3.151999E-2
1.635000E-8	3.061555E-2
1.640000E-8	2.961005E-2
1.645000E-8	2.858571E-2
1.650000E-8	2.752882E-2
1.655000E-8	2.648392E-2
1.660000E-8	2.544416E-2
1.665000E-8	2.444037E-2
1.670000E-8	2.353079E-2
1.675000E-8	2.267261E-2
1.680000E-8	2.189835E-2
1.685000E-8	2.117377E-2
1.690000E-8	2.057595E-2
1.695000E-8	2.004323E-2
1.700000E-8	1.953791E-2
1.705000E-8	1.918333E-2
1.710000E-8	1.894694E-2
1.715000E-8	1.883388E-2
1.720000E-8	1.879106E-2
1.725000E-8	1.890925E-2
1.730000E-8	1.912166E-2
1.735000E-8	1.944541E-2
1.740000E-8	1.989591E-2
1.745000E-8	2.047660E-2
1.750000E-8	2.113095E-2
1.755000E-8	2.191377E-2
1.760000E-8	2.279422E-2
1.765000E-8	2.371922E-2
1.770000E-8	2.473328E-2
1.775000E-8	2.574050E-2
1.780000E-8	2.679739E-2
1.785000E-8	2.782859E-2
1.790000E-8	2.882381E-2
1.795000E-8	2.977450E-2
1.800000E-8	3.068407E-2
1.805000E-8	3.146518E-2
1.810000E-8	3.216920E-2
1.815000E-8	3.279100E-2
1.820000E-8	3.329461E-2
1.825000E-8	3.370400E-2
1.830000E-8	3.399349E-2
1.835000E-8	3.418020E-2
1.840000E-8	3.425557E-2
1.845000E-8	3.425729E-2
1.850000E-8	3.412025E-2
1.855000E-8	3.385132E-2
1.860000E-8	3.347789E-2
1.865000E-8	3.300341E-2
1.870000E-8	3.245355E-2
1.875000E-8	3.176323E-2
1.880000E-8	3.098041E-2
1.885000E-8	3.012736E-2
1.890000E-8	2.921094E-2
1.895000E-8	2.820886E-2
1.900000E-8	2.717424E-2
1.905000E-8	2.610364E-2
1.910000E-8	2.505361E-2
1.915000E-8	2.401213E-2
1.920000E-8	2.300149E-2
1.925000E-8	2.204053E-2
1.930000E-8	2.115664E-2
1.935000E-8	2.037554E-2
1.940000E-8	1.968522E-2
1.945000E-8	1.911138E-2
1.950000E-8	1.863176E-2
1.955000E-8	1.830458E-2
1.960000E-8	1.809560E-2
1.965000E-8	1.806306E-2
1.970000E-8	1.814014E-2
1.975000E-8	1.834227E-2
1.980000E-8	1.865060E-2
1.985000E-8	1.908055E-2
1.990000E-8	1.961670E-2
1.995000E-8	2.023679E-2
2.000000E-8	2.092197E-2
2.005000E-8	2.162085E-2
2.010000E-8	2.237627E-2
2.015000E-8	2.315394E-2
2.020000E-8	2.394019E-2
2.025000E-8	2.472815E-2
2.030000E-8	2.554351E-2
2.035000E-8	2.634003E-2
2.040000E-8	2.711942E-2
2.045000E-8	2.787655E-2
2.050000E-8	2.862339E-2
2.055000E-8	2.928117E-2
2.060000E-8	2.989440E-2
2.065000E-8	3.044597E-2
2.070000E-8	3.091532E-2
2.075000E-8	3.125791E-2
2.080000E-8	3.151657E-2
2.085000E-8	3.166902E-2
2.090000E-8	3.171527E-2
2.095000E-8	3.167416E-2
2.100000E-8	3.148402E-2
2.105000E-8	3.118768E-2
2.110000E-8	3.077315E-2
2.115000E-8	3.030380E-2
2.120000E-8	2.976251E-2
2.125000E-8	2.910302E-2
2.130000E-8	2.838529E-2
2.135000E-8	2.762817E-2
2.140000E-8	2.676656E-2
2.145000E-8	2.591179E-2
2.150000E-8	2.502962E-2
2.155000E-8	2.412347E-2
2.160000E-8	2.321561E-2
2.165000E-8	2.232316E-2
2.170000E-8	2.144956E-2
2.175000E-8	2.063933E-2
2.180000E-8	1.988735E-2
2.185000E-8	1.919018E-2
2.190000E-8	1.858037E-2
2.195000E-8	1.805621E-2
2.200000E-8	1.758686E-2
2.205000E-8	1.719802E-2
2.210000E-8	1.692737E-2
2.215000E-8	1.669955E-2
2.220000E-8	1.655909E-2
2.225000E-8	1.655566E-2
2.230000E-8	1.668413E-2
2.235000E-8	1.687598E-2
2.240000E-8	1.723228E-2
2.245000E-8	1.771019E-2
2.250000E-8	1.829944E-2
2.255000E-8	1.899661E-2
2.260000E-8	1.978115E-2
2.265000E-8	2.068901E-2
2.270000E-8	2.162771E-2
2.275000E-8	2.256640E-2
2.280000E-8	2.346913E-2
2.285000E-8	2.436843E-2
2.290000E-8	2.520777E-2
2.295000E-8	2.597346E-2
2.300000E-8	2.669119E-2
2.305000E-8	2.737123E-2
2.310000E-8	2.792965E-2
2.315000E-8	2.846580E-2
2.320000E-8	2.891460E-2
2.325000E-8	2.929830E-2
2.330000E-8	2.964431E-2
2.335000E-8	2.991153E-2
2.340000E-8	3.009996E-2
2.345000E-8	3.017361E-2
2.350000E-8	3.015991E-2
2.355000E-8	3.002287E-2
2.360000E-8	2.976422E-2
2.365000E-8	2.937880E-2
2.370000E-8	2.886149E-2
2.375000E-8	2.824826E-2
2.380000E-8	2.754081E-2
2.385000E-8	2.679054E-2
2.390000E-8	2.595290E-2
2.395000E-8	2.509300E-2
2.400000E-8	2.425708E-2
2.405000E-8	2.342116E-2
2.410000E-8	2.261608E-2
2.415000E-8	2.182470E-2
2.420000E-8	2.102475E-2
2.425000E-8	2.025221E-2
2.430000E-8	1.949508E-2
2.435000E-8	1.878250E-2
2.440000E-8	1.803736E-2
2.445000E-8	1.734019E-2
2.450000E-8	1.670811E-2
2.455000E-8	1.612400E-2
2.460000E-8	1.565465E-2
2.465000E-8	1.526410E-2
2.470000E-8	1.505683E-2
2.475000E-8	1.499688E-2
2.480000E-8	1.506539E-2
2.485000E-8	1.527266E-2
2.490000E-8	1.565294E-2
2.495000E-8	1.622164E-2
2.500000E-8	1.690168E-2
2.505000E-8	1.767764E-2
2.510000E-8	1.854782E-2
2.515000E-8	1.945397E-2
2.520000E-8	2.040809E-2
2.525000E-8	2.135363E-2
2.530000E-8	2.228548E-2
2.535000E-8	2.317964E-2
2.540000E-8	2.406352E-2
2.545000E-8	2.486861E-2
2.550000E-8	2.564629E-2
2.555000E-8	2.635031E-2
2.560000E-8	2.701151E-2
2.565000E-8	2.764016E-2
2.570000E-8	2.822256E-2
2.575000E-8	2.869020E-2
2.580000E-8	2.910302E-2
2.585000E-8	2.946959E-2
2.590000E-8	2.969399E-2
2.595000E-8	2.982075E-2
2.600000E-8	2.977107E-2
2.605000E-8	2.959978E-2
2.610000E-8	2.929316E-2
2.615000E-8	2.882723E-2
2.620000E-8	2.822428E-2
2.625000E-8	2.750655E-2
2.630000E-8	2.667920E-2
2.635000E-8	2.582101E-2
2.640000E-8	2.492513E-2
2.645000E-8	2.398473E-2
2.650000E-8	2.308714E-2
2.655000E-8	2.220326E-2
2.660000E-8	2.136905E-2
2.665000E-8	2.056568E-2
2.670000E-8	1.981712E-2
2.675000E-8	1.909768E-2
2.680000E-8	1.838509E-2
2.685000E-8	1.775815E-2
2.690000E-8	1.713292E-2
2.695000E-8	1.651798E-2
2.700000E-8	1.596641E-2
2.705000E-8	1.544396E-2
2.710000E-8	1.499174E-2
2.715000E-8	1.461831E-2
2.720000E-8	1.434082E-2
2.725000E-8	1.420892E-2
2.730000E-8	1.415753E-2
2.735000E-8	1.431170E-2
2.740000E-8	1.457549E-2
2.745000E-8	1.498660E-2
2.750000E-8	1.557071E-2
2.755000E-8	1.628330E-2
2.760000E-8	1.711237E-2
2.765000E-8	1.800482E-2
2.770000E-8	1.897949E-2
2.775000E-8	1.994901E-2
2.780000E-8	2.094253E-2
2.785000E-8	2.191719E-2
2.790000E-8	2.288330E-2
2.795000E-8	2.378088E-2
2.800000E-8	2.462708E-2
2.805000E-8	2.540305E-2
2.810000E-8	2.613448E-2
2.815000E-8	2.674943E-2
2.820000E-8	2.728044E-2
2.825000E-8	2.775322E-2
2.830000E-8	2.811979E-2
2.835000E-8	2.839900E-2
2.840000E-8	2.854289E-2
2.845000E-8	2.861654E-2
2.850000E-8	2.856858E-2
2.855000E-8	2.843154E-2
2.860000E-8	2.816261E-2
2.865000E-8	2.777720E-2
2.870000E-8	2.728044E-2
2.875000E-8	2.671517E-2
2.880000E-8	2.607452E-2
2.885000E-8	2.534481E-2
2.890000E-8	2.454657E-2
2.895000E-8	2.368838E-2
2.900000E-8	2.273770E-2
2.905000E-8	2.180757E-2
2.910000E-8	2.086544E-2
2.915000E-8	1.993874E-2
2.920000E-8	1.902573E-2
2.925000E-8	1.820694E-2
2.930000E-8	1.742070E-2
2.935000E-8	1.665844E-2
2.940000E-8	1.599210E-2
2.945000E-8	1.539428E-2
2.950000E-8	1.493178E-2
2.955000E-8	1.454123E-2
2.960000E-8	1.425174E-2
2.965000E-8	1.406503E-2
2.970000E-8	1.397767E-2
2.975000E-8	1.399994E-2
2.980000E-8	1.412670E-2
2.985000E-8	1.436137E-2
2.990000E-8	1.464743E-2
2.995000E-8	1.502600E-2
3.000000E-8	1.552789E-2
3.005000E-8	1.613256E-2
3.010000E-8	1.682117E-2
3.015000E-8	1.760741E-2
3.020000E-8	1.846046E-2
3.025000E-8	1.938203E-2
3.030000E-8	2.038068E-2
3.035000E-8	2.137419E-2
3.040000E-8	2.238140E-2
3.045000E-8	2.334066E-2
3.050000E-8	2.420056E-2
3.055000E-8	2.498338E-2
3.060000E-8	2.565656E-2
3.065000E-8	2.618244E-2
3.070000E-8	2.657813E-2
3.075000E-8	2.687276E-2
3.080000E-8	2.705604E-2
3.085000E-8	2.715711E-2
3.090000E-8	2.715882E-2
3.095000E-8	2.710401E-2
3.100000E-8	2.694642E-2
3.105000E-8	2.677683E-2
3.110000E-8	2.654730E-2
3.115000E-8	2.626809E-2
3.120000E-8	2.596147E-2
3.125000E-8	2.558462E-2
3.130000E-8	2.512726E-2
3.135000E-8	2.456199E-2
3.140000E-8	2.390422E-2
3.145000E-8	2.317793E-2
3.150000E-8	2.238826E-2
3.155000E-8	2.152493E-2
3.160000E-8	2.069244E-2
3.165000E-8	1.983767E-2
3.170000E-8	1.896064E-2
3.175000E-8	1.807505E-2
3.180000E-8	1.722029E-2
3.185000E-8	1.645802E-2
3.190000E-8	1.575229E-2
3.195000E-8	1.514590E-2
3.200000E-8	1.459947E-2
3.205000E-8	1.414040E-2
3.210000E-8	1.375156E-2
3.215000E-8	1.344837E-2
3.220000E-8	1.325309E-2
3.225000E-8	1.313661E-2
3.230000E-8	1.311092E-2
3.235000E-8	1.319999E-2
3.240000E-8	1.340555E-2
3.245000E-8	1.368476E-2
3.250000E-8	1.411128E-2
3.255000E-8	1.466285E-2
3.260000E-8	1.527095E-2
3.265000E-8	1.597668E-2
3.270000E-8	1.676807E-2
3.275000E-8	1.762968E-2
3.280000E-8	1.854268E-2
3.285000E-8	1.949166E-2
3.290000E-8	2.042179E-2
3.295000E-8	2.135363E-2
3.300000E-8	2.221525E-2
3.305000E-8	2.301862E-2
3.310000E-8	2.372264E-2
3.315000E-8	2.432046E-2
3.320000E-8	2.481893E-2
3.325000E-8	2.522833E-2
3.330000E-8	2.554351E-2
3.335000E-8	2.572851E-2
3.340000E-8	2.583642E-2
3.345000E-8	2.587925E-2
3.350000E-8	2.583985E-2
3.355000E-8	2.572508E-2
3.360000E-8	2.549726E-2
3.365000E-8	2.517009E-2
3.370000E-8	2.476754E-2
3.375000E-8	2.430162E-2
3.380000E-8	2.373977E-2
3.385000E-8	2.312140E-2
3.390000E-8	2.243279E-2
3.395000E-8	2.169109E-2
3.400000E-8	2.089970E-2
3.405000E-8	2.012031E-2
3.410000E-8	1.931522E-2
3.415000E-8	1.844847E-2
3.420000E-8	1.765195E-2
3.425000E-8	1.689482E-2
3.430000E-8	1.619423E-2
3.435000E-8	1.554845E-2
3.440000E-8	1.497975E-2
3.445000E-8	1.447785E-2
3.450000E-8	1.406161E-2
3.455000E-8	1.374300E-2
3.460000E-8	1.351346E-2
3.465000E-8	1.340212E-2
3.470000E-8	1.337300E-2
3.475000E-8	1.340897E-2
3.480000E-8	1.356999E-2
3.485000E-8	1.381494E-2
3.490000E-8	1.417466E-2
3.495000E-8	1.458919E-2
3.500000E-8	1.503970E-2
3.505000E-8	1.556558E-2
3.510000E-8	1.613770E-2
3.515000E-8	1.673895E-2
3.520000E-8	1.741042E-2
3.525000E-8	1.816583E-2
3.530000E-8	1.894009E-2
3.535000E-8	1.972291E-2
3.540000E-8	2.051943E-2
3.545000E-8	2.126456E-2
3.550000E-8	2.202340E-2
3.555000E-8	2.273256E-2
3.560000E-8	2.333552E-2
3.565000E-8	2.385797E-2
3.570000E-8	2.429134E-2
3.575000E-8	2.455342E-2
3.580000E-8	2.473500E-2
3.585000E-8	2.484120E-2
3.590000E-8	2.489601E-2
3.595000E-8	2.490115E-2
3.600000E-8	2.484976E-2
3.605000E-8	2.472986E-2
3.610000E-8	2.456713E-2
3.615000E-8	2.433931E-2
3.620000E-8	2.399843E-2
3.625000E-8	2.362501E-2
3.630000E-8	2.314195E-2
3.635000E-8	2.262464E-2
3.640000E-8	2.197201E-2
3.645000E-8	2.124058E-2
3.650000E-8	2.045434E-2
3.655000E-8	1.960814E-2
3.660000E-8	1.877393E-2
3.665000E-8	1.793972E-2
3.670000E-8	1.712607E-2
3.675000E-8	1.635353E-2
3.680000E-8	1.567520E-2
3.685000E-8	1.504484E-2
3.690000E-8	1.447957E-2
3.695000E-8	1.397425E-2
3.700000E-8	1.354943E-2
3.705000E-8	1.316573E-2
3.710000E-8	1.282486E-2
3.715000E-8	1.256791E-2
3.720000E-8	1.236065E-2
3.725000E-8	1.223560E-2
3.730000E-8	1.219106E-2
3.735000E-8	1.224074E-2
3.740000E-8	1.242574E-2
3.745000E-8	1.274949E-2
3.750000E-8	1.319999E-2
3.755000E-8	1.374128E-2
3.760000E-8	1.439049E-2
3.765000E-8	1.516817E-2
3.770000E-8	1.596298E-2
3.775000E-8	1.678006E-2
3.780000E-8	1.759713E-2
3.785000E-8	1.843305E-2
3.790000E-8	1.924328E-2
3.795000E-8	2.002781E-2
3.800000E-8	2.073183E-2
3.805000E-8	2.141359E-2
3.810000E-8	2.199770E-2
3.815000E-8	2.252529E-2
3.820000E-8	2.296381E-2
3.825000E-8	2.333552E-2
3.830000E-8	2.360102E-2
3.835000E-8	2.380658E-2
3.840000E-8	2.397959E-2
3.845000E-8	2.406695E-2
3.850000E-8	2.407551E-2
3.855000E-8	2.401042E-2
3.860000E-8	2.384769E-2
3.865000E-8	2.362158E-2
3.870000E-8	2.332524E-2
3.875000E-8	2.296552E-2
3.880000E-8	2.250131E-2
3.885000E-8	2.198229E-2
3.890000E-8	2.138447E-2
3.895000E-8	2.068216E-2
3.900000E-8	1.992675E-2
3.905000E-8	1.913022E-2
3.910000E-8	1.836111E-2
3.915000E-8	1.757829E-2
3.920000E-8	1.682117E-2
3.925000E-8	1.610344E-2
3.930000E-8	1.545595E-2
3.935000E-8	1.486155E-2
3.940000E-8	1.434424E-2
3.945000E-8	1.384920E-2
3.950000E-8	1.339869E-2
3.955000E-8	1.298587E-2
3.960000E-8	1.259189E-2
3.965000E-8	1.229727E-2
3.970000E-8	1.207972E-2
3.975000E-8	1.197352E-2
3.980000E-8	1.192384E-2
3.985000E-8	1.194611E-2
3.990000E-8	1.200949E-2
3.995000E-8	1.220991E-2
4.000000E-8	1.250111E-2
4.005000E-8	1.292421E-2
4.010000E-8	1.340726E-2
4.015000E-8	1.397253E-2
4.020000E-8	1.458063E-2
4.025000E-8	1.522470E-2
4.030000E-8	1.586363E-2
4.035000E-8	1.655737E-2
4.040000E-8	1.722200E-2
4.045000E-8	1.792945E-2
4.050000E-8	1.862319E-2
4.055000E-8	1.928096E-2
4.060000E-8	1.989077E-2
4.065000E-8	2.047660E-2
4.070000E-8	2.101104E-2
4.075000E-8	2.143072E-2
4.080000E-8	2.179900E-2
4.085000E-8	2.210733E-2
4.090000E-8	2.236770E-2
4.095000E-8	2.252700E-2
4.100000E-8	2.258353E-2
4.105000E-8	2.255784E-2
4.110000E-8	2.247733E-2
4.115000E-8	2.235914E-2
4.120000E-8	2.215701E-2
4.125000E-8	2.190178E-2
4.130000E-8	2.159173E-2
4.135000E-8	2.125257E-2
4.140000E-8	2.081405E-2
4.145000E-8	2.032244E-2
4.150000E-8	1.978971E-2
4.155000E-8	1.922958E-2
4.160000E-8	1.863861E-2
4.165000E-8	1.797398E-2
4.170000E-8	1.726140E-2
4.175000E-8	1.654196E-2
4.180000E-8	1.582937E-2
4.185000E-8	1.512877E-2
4.190000E-8	1.449669E-2
4.195000E-8	1.390915E-2
4.200000E-8	1.344494E-2
4.205000E-8	1.309379E-2
4.210000E-8	1.281115E-2
4.215000E-8	1.262615E-2
4.220000E-8	1.257305E-2
4.225000E-8	1.256791E-2
4.230000E-8	1.262787E-2
4.235000E-8	1.279574E-2
4.240000E-8	1.298073E-2
4.245000E-8	1.321883E-2
4.250000E-8	1.348092E-2
4.255000E-8	1.376869E-2
4.260000E-8	1.409073E-2
4.265000E-8	1.449327E-2
4.270000E-8	1.489924E-2
4.275000E-8	1.539257E-2
4.280000E-8	1.598182E-2
4.285000E-8	1.660705E-2
4.290000E-8	1.725112E-2
4.295000E-8	1.795685E-2
4.300000E-8	1.863347E-2
4.305000E-8	1.927925E-2
4.310000E-8	1.990790E-2
4.315000E-8	2.043892E-2
4.320000E-8	2.093396E-2
4.325000E-8	2.131766E-2
4.330000E-8	2.159859E-2
4.335000E-8	2.172192E-2
4.340000E-8	2.174076E-2
4.345000E-8	2.170136E-2
4.350000E-8	2.157632E-2
4.355000E-8	2.141530E-2
4.360000E-8	2.122688E-2
4.365000E-8	2.102132E-2
4.370000E-8	2.081405E-2
4.375000E-8	2.064447E-2
4.380000E-8	2.042008E-2
4.385000E-8	2.014429E-2
4.390000E-8	1.981540E-2
4.395000E-8	1.940258E-2
4.400000E-8	1.888699E-2
4.405000E-8	1.830630E-2
4.410000E-8	1.764681E-2
4.415000E-8	1.689825E-2
4.420000E-8	1.608631E-2
4.425000E-8	1.526238E-2
4.430000E-8	1.447443E-2
4.435000E-8	1.373614E-2
4.440000E-8	1.307495E-2
4.445000E-8	1.250796E-2
4.450000E-8	1.204032E-2
4.455000E-8	1.166348E-2
4.460000E-8	1.139968E-2
4.465000E-8	1.127977E-2
4.470000E-8	1.124209E-2
4.475000E-8	1.128149E-2
4.480000E-8	1.142024E-2
4.485000E-8	1.158811E-2
4.490000E-8	1.182963E-2
4.495000E-8	1.207630E-2
4.500000E-8	1.237435E-2
4.505000E-8	1.272037E-2
4.510000E-8	1.306124E-2
4.515000E-8	1.340726E-2
4.520000E-8	1.379096E-2
4.525000E-8	1.420892E-2
4.530000E-8	1.466114E-2
4.535000E-8	1.511850E-2
4.540000E-8	1.564095E-2
4.545000E-8	1.618909E-2
4.550000E-8	1.672524E-2
4.555000E-8	1.722542E-2
4.560000E-8	1.774959E-2
4.565000E-8	1.820866E-2
4.570000E-8	1.867458E-2
4.575000E-8	1.908569E-2
4.580000E-8	1.939231E-2
4.585000E-8	1.968522E-2
4.590000E-8	1.992503E-2
4.595000E-8	2.009804E-2
4.600000E-8	2.019739E-2
4.605000E-8	2.027790E-2
4.610000E-8	2.031045E-2
4.615000E-8	2.028647E-2
4.620000E-8	2.017855E-2
4.625000E-8	2.004151E-2
4.630000E-8	1.983425E-2
4.635000E-8	1.950365E-2
4.640000E-8	1.910110E-2
4.645000E-8	1.865916E-2
4.650000E-8	1.813329E-2
4.655000E-8	1.756630E-2
4.660000E-8	1.695992E-2
4.665000E-8	1.632955E-2
4.670000E-8	1.568720E-2
4.675000E-8	1.503970E-2
4.680000E-8	1.445558E-2
4.685000E-8	1.390230E-2
4.690000E-8	1.340212E-2
4.695000E-8	1.297046E-2
4.700000E-8	1.259703E-2
4.705000E-8	1.230241E-2
4.710000E-8	1.207458E-2
4.715000E-8	1.192384E-2
4.720000E-8	1.179709E-2
4.725000E-8	1.176968E-2
4.730000E-8	1.184162E-2
4.735000E-8	1.195296E-2
4.740000E-8	1.212597E-2
4.745000E-8	1.234009E-2
4.750000E-8	1.263643E-2
4.755000E-8	1.291907E-2
4.760000E-8	1.324110E-2
4.765000E-8	1.362652E-2
4.770000E-8	1.401193E-2
4.775000E-8	1.442646E-2
4.780000E-8	1.484785E-2
4.785000E-8	1.526581E-2
4.790000E-8	1.570090E-2
4.795000E-8	1.611886E-2
4.800000E-8	1.652654E-2
4.805000E-8	1.694279E-2
4.810000E-8	1.730422E-2
4.815000E-8	1.769991E-2
4.820000E-8	1.809732E-2
4.825000E-8	1.842278E-2
4.830000E-8	1.870027E-2
4.835000E-8	1.896407E-2
4.840000E-8	1.916962E-2
4.845000E-8	1.930837E-2
4.850000E-8	1.941115E-2
4.855000E-8	1.941971E-2
4.860000E-8	1.941457E-2
4.865000E-8	1.932379E-2
4.870000E-8	1.916277E-2
4.875000E-8	1.888185E-2
4.880000E-8	1.856324E-2
4.885000E-8	1.817954E-2
4.890000E-8	1.773760E-2
4.895000E-8	1.727167E-2
4.900000E-8	1.678862E-2
4.905000E-8	1.628159E-2
4.910000E-8	1.578312E-2
4.915000E-8	1.529150E-2
4.920000E-8	1.483072E-2
4.925000E-8	1.438707E-2
4.930000E-8	1.399823E-2
4.935000E-8	1.366078E-2
4.940000E-8	1.334045E-2
4.945000E-8	1.304069E-2
4.950000E-8	1.275120E-2
4.955000E-8	1.246685E-2
4.960000E-8	1.218421E-2
4.965000E-8	1.197009E-2
4.970000E-8	1.177653E-2
4.975000E-8	1.160695E-2
4.980000E-8	1.149732E-2
4.985000E-8	1.142366E-2
4.990000E-8	1.145107E-2
4.995000E-8	1.156070E-2
5.000000E-8	1.176797E-2
5.005000E-8	1.206259E-2
5.010000E-8	1.240176E-2
5.015000E-8	1.281629E-2
5.020000E-8	1.332161E-2
5.025000E-8	1.386119E-2
5.030000E-8	1.442475E-2
5.035000E-8	1.500544E-2
5.040000E-8	1.548849E-2
5.045000E-8	1.596298E-2
5.050000E-8	1.638265E-2
5.055000E-8	1.672182E-2
5.060000E-8	1.699246E-2
5.065000E-8	1.726140E-2
5.070000E-8	1.744811E-2
5.075000E-8	1.762968E-2
5.080000E-8	1.779926E-2
5.085000E-8	1.793116E-2
5.090000E-8	1.803736E-2
5.095000E-8	1.808875E-2
5.100000E-8	1.814528E-2
5.105000E-8	1.815898E-2
5.110000E-8	1.813500E-2
5.115000E-8	1.806134E-2
5.120000E-8	1.796542E-2
5.125000E-8	1.778385E-2
5.130000E-8	1.752005E-2
5.135000E-8	1.725112E-2
5.140000E-8	1.691881E-2
5.145000E-8	1.654196E-2
5.150000E-8	1.614113E-2
5.155000E-8	1.571460E-2
5.160000E-8	1.525211E-2
5.165000E-8	1.481702E-2
5.170000E-8	1.435966E-2
5.175000E-8	1.388517E-2
5.180000E-8	1.340383E-2
5.185000E-8	1.300643E-2
5.190000E-8	1.262101E-2
5.195000E-8	1.227157E-2
5.200000E-8	1.201120E-2
5.205000E-8	1.175769E-2
5.210000E-8	1.150588E-2
5.215000E-8	1.131061E-2
5.220000E-8	1.116843E-2
5.225000E-8	1.104853E-2
5.230000E-8	1.098001E-2
5.235000E-8	1.096117E-2
5.240000E-8	1.098172E-2
5.245000E-8	1.111533E-2
5.250000E-8	1.125579E-2
5.255000E-8	1.148019E-2
5.260000E-8	1.175769E-2
5.265000E-8	1.210370E-2
5.270000E-8	1.246685E-2
5.275000E-8	1.283342E-2
5.280000E-8	1.321370E-2
5.285000E-8	1.356314E-2
5.290000E-8	1.394170E-2
5.295000E-8	1.434082E-2
5.300000E-8	1.471253E-2
5.305000E-8	1.507053E-2
5.310000E-8	1.540627E-2
5.315000E-8	1.570946E-2
5.320000E-8	1.596469E-2
5.325000E-8	1.619594E-2
5.330000E-8	1.643233E-2
5.335000E-8	1.661904E-2
5.340000E-8	1.674751E-2
5.345000E-8	1.678862E-2
5.350000E-8	1.682288E-2
5.355000E-8	1.678862E-2
5.360000E-8	1.669612E-2
5.365000E-8	1.658649E-2
5.370000E-8	1.645117E-2
5.375000E-8	1.626103E-2
5.380000E-8	1.602122E-2
5.385000E-8	1.573173E-2
5.390000E-8	1.545595E-2
5.395000E-8	1.517502E-2
5.400000E-8	1.486498E-2
5.405000E-8	1.451211E-2
5.410000E-8	1.419008E-2
5.415000E-8	1.382864E-2
5.420000E-8	1.347235E-2
5.425000E-8	1.311434E-2
5.430000E-8	1.276148E-2
5.435000E-8	1.241203E-2
5.440000E-8	1.207630E-2
5.445000E-8	1.177824E-2
5.450000E-8	1.153843E-2
5.455000E-8	1.135001E-2
5.460000E-8	1.121468E-2
5.465000E-8	1.108792E-2
5.470000E-8	1.100399E-2
5.475000E-8	1.096802E-2
5.480000E-8	1.093205E-2
5.485000E-8	1.096459E-2
5.490000E-8	1.102968E-2
5.495000E-8	1.113417E-2
5.500000E-8	1.125065E-2
5.505000E-8	1.140139E-2
5.510000E-8	1.156584E-2
5.515000E-8	1.176797E-2
5.520000E-8	1.198551E-2
5.525000E-8	1.219106E-2
5.530000E-8	1.243944E-2
5.535000E-8	1.269638E-2
5.540000E-8	1.297217E-2
5.545000E-8	1.328221E-2
5.550000E-8	1.360425E-2
5.555000E-8	1.390230E-2
5.560000E-8	1.418665E-2
5.565000E-8	1.446757E-2
5.570000E-8	1.469711E-2
5.575000E-8	1.492493E-2
5.580000E-8	1.512535E-2
5.585000E-8	1.526924E-2
5.590000E-8	1.538400E-2
5.595000E-8	1.546109E-2
5.600000E-8	1.550905E-2
5.605000E-8	1.551761E-2
5.610000E-8	1.550734E-2
5.615000E-8	1.549706E-2
5.620000E-8	1.546109E-2
5.625000E-8	1.539085E-2
5.630000E-8	1.525211E-2
5.635000E-8	1.509280E-2
5.640000E-8	1.491637E-2
5.645000E-8	1.471081E-2
5.650000E-8	1.448299E-2
5.655000E-8	1.422262E-2
5.660000E-8	1.390401E-2
5.665000E-8	1.362309E-2
5.670000E-8	1.333360E-2
5.675000E-8	1.306467E-2
5.680000E-8	1.279745E-2
5.685000E-8	1.252338E-2
5.690000E-8	1.221676E-2
5.695000E-8	1.192556E-2
5.700000E-8	1.161894E-2
5.705000E-8	1.132602E-2
5.710000E-8	1.106394E-2
5.715000E-8	1.081728E-2
5.720000E-8	1.059631E-2
5.725000E-8	1.044214E-2
5.730000E-8	1.032052E-2
5.735000E-8	1.030339E-2
5.740000E-8	1.039589E-2
5.745000E-8	1.054149E-2
5.750000E-8	1.080871E-2
5.755000E-8	1.116158E-2
5.760000E-8	1.155727E-2
5.765000E-8	1.200607E-2
5.770000E-8	1.244287E-2
5.775000E-8	1.285398E-2
5.780000E-8	1.322226E-2
5.785000E-8	1.359740E-2
5.790000E-8	1.390915E-2
5.795000E-8	1.416438E-2
5.800000E-8	1.435109E-2
5.805000E-8	1.450183E-2
5.810000E-8	1.461489E-2
5.815000E-8	1.472109E-2
5.820000E-8	1.483072E-2
5.825000E-8	1.492665E-2
5.830000E-8	1.504484E-2
5.835000E-8	1.518187E-2
5.840000E-8	1.526581E-2
5.845000E-8	1.534974E-2
5.850000E-8	1.541141E-2
5.855000E-8	1.547136E-2
5.860000E-8	1.547136E-2
5.865000E-8	1.545937E-2
5.870000E-8	1.538572E-2
5.875000E-8	1.525211E-2
5.880000E-8	1.513049E-2
5.885000E-8	1.493007E-2
5.890000E-8	1.473308E-2
5.895000E-8	1.450697E-2
5.900000E-8	1.426887E-2
5.905000E-8	1.402392E-2
5.910000E-8	1.374471E-2
5.915000E-8	1.343295E-2
5.920000E-8	1.311948E-2
5.925000E-8	1.280430E-2
5.930000E-8	1.250282E-2
5.935000E-8	1.223560E-2
5.940000E-8	1.195810E-2
5.945000E-8	1.168574E-2
5.950000E-8	1.141167E-2
5.955000E-8	1.120098E-2
5.960000E-8	1.101598E-2
5.965000E-8	1.087381E-2
5.970000E-8	1.074362E-2
5.975000E-8	1.069908E-2
5.980000E-8	1.070422E-2
5.985000E-8	1.072478E-2
5.990000E-8	1.077617E-2
5.995000E-8	1.088408E-2
6.000000E-8	1.102626E-2
6.005000E-8	1.121982E-2
6.010000E-8	1.144764E-2
6.015000E-8	1.167033E-2
6.020000E-8	1.190158E-2
6.025000E-8	1.215167E-2
6.030000E-8	1.238634E-2
6.035000E-8	1.264671E-2
6.040000E-8	1.290879E-2
6.045000E-8	1.315717E-2
6.050000E-8	1.341754E-2
6.055000E-8	1.365050E-2
6.060000E-8	1.383036E-2
6.065000E-8	1.402563E-2
6.070000E-8	1.419008E-2
6.075000E-8	1.432369E-2
6.080000E-8	1.444702E-2
6.085000E-8	1.456350E-2
6.090000E-8	1.466799E-2
6.095000E-8	1.476049E-2
6.100000E-8	1.488211E-2
6.105000E-8	1.502771E-2
6.110000E-8	1.510137E-2
6.115000E-8	1.515104E-2
6.120000E-8	1.515961E-2
6.125000E-8	1.515447E-2
6.130000E-8	1.506368E-2
6.135000E-8	1.491123E-2
6.140000E-8	1.470396E-2
6.145000E-8	1.442133E-2
6.150000E-8	1.410100E-2
6.155000E-8	1.376527E-2
6.160000E-8	1.341582E-2
6.165000E-8	1.304411E-2
6.170000E-8	1.269981E-2
6.175000E-8	1.241375E-2
6.180000E-8	1.211227E-2
6.185000E-8	1.185533E-2
6.190000E-8	1.163778E-2
6.195000E-8	1.145621E-2
6.200000E-8	1.126607E-2
6.205000E-8	1.110334E-2
6.210000E-8	1.093547E-2
6.215000E-8	1.073334E-2
6.220000E-8	1.054492E-2
6.225000E-8	1.037020E-2
6.230000E-8	1.017663E-2
6.235000E-8	1.003617E-2
6.240000E-8	9.912840E-3
6.245000E-8	9.844322E-3
6.250000E-8	9.825480E-3
6.255000E-8	9.875156E-3
6.260000E-8	1.000191E-2
6.265000E-8	1.022631E-2
6.270000E-8	1.049867E-2
6.275000E-8	1.082584E-2
6.280000E-8	1.119413E-2
6.285000E-8	1.159496E-2
6.290000E-8	1.198380E-2
6.295000E-8	1.235037E-2
6.300000E-8	1.265699E-2
6.305000E-8	1.288310E-2
6.310000E-8	1.308351E-2
6.315000E-8	1.323596E-2
6.320000E-8	1.333874E-2
6.325000E-8	1.339869E-2
6.330000E-8	1.339698E-2
6.335000E-8	1.339869E-2
6.340000E-8	1.337300E-2
6.345000E-8	1.336272E-2
6.350000E-8	1.329249E-2
6.355000E-8	1.321712E-2
6.360000E-8	1.311777E-2
6.365000E-8	1.298073E-2
6.370000E-8	1.284370E-2
6.375000E-8	1.268611E-2
6.380000E-8	1.250796E-2
6.385000E-8	1.229555E-2
6.390000E-8	1.209856E-2
6.395000E-8	1.189301E-2
6.400000E-8	1.173542E-2
6.405000E-8	1.160010E-2
6.410000E-8	1.150075E-2
6.415000E-8	1.144250E-2
6.420000E-8	1.134144E-2
6.425000E-8	1.129348E-2
6.430000E-8	1.126093E-2
6.435000E-8	1.120440E-2
6.440000E-8	1.111362E-2
6.445000E-8	1.096459E-2
6.450000E-8	1.081043E-2
6.455000E-8	1.063228E-2
6.460000E-8	1.044728E-2
6.465000E-8	1.024858E-2
6.470000E-8	1.005673E-2
6.475000E-8	9.866591E-3
6.480000E-8	9.746684E-3
6.485000E-8	9.647333E-3
6.490000E-8	9.587380E-3
6.495000E-8	9.590806E-3
6.500000E-8	9.616500E-3
6.505000E-8	9.703861E-3
6.510000E-8	9.820341E-3
6.515000E-8	9.971081E-3
6.520000E-8	1.015437E-2
6.525000E-8	1.037362E-2
6.530000E-8	1.062029E-2
6.535000E-8	1.084469E-2
6.540000E-8	1.111019E-2
6.545000E-8	1.137913E-2
6.550000E-8	1.166519E-2
6.555000E-8	1.195982E-2
6.560000E-8	1.219449E-2
6.565000E-8	1.243259E-2
6.570000E-8	1.259703E-2
6.575000E-8	1.278546E-2
6.580000E-8	1.293106E-2
6.585000E-8	1.310578E-2
6.590000E-8	1.324453E-2
6.595000E-8	1.336101E-2
6.600000E-8	1.345008E-2
6.605000E-8	1.348948E-2
6.610000E-8	1.349119E-2
6.615000E-8	1.346379E-2
6.620000E-8	1.339184E-2
6.625000E-8	1.327536E-2
6.630000E-8	1.309036E-2
6.635000E-8	1.287624E-2
6.640000E-8	1.264157E-2
6.645000E-8	1.240690E-2
6.650000E-8	1.218593E-2
6.655000E-8	1.197181E-2
6.660000E-8	1.174570E-2
6.665000E-8	1.154699E-2
6.670000E-8	1.141510E-2
6.675000E-8	1.129005E-2
6.680000E-8	1.119755E-2
6.685000E-8	1.109991E-2
6.690000E-8	1.102797E-2
6.695000E-8	1.091149E-2
6.700000E-8	1.078473E-2
6.705000E-8	1.063571E-2
6.710000E-8	1.047640E-2
6.715000E-8	1.029140E-2
6.720000E-8	1.013210E-2
6.725000E-8	9.988210E-3
6.730000E-8	9.912840E-3
6.735000E-8	9.900850E-3
6.740000E-8	9.900850E-3
6.745000E-8	9.965942E-3
6.750000E-8	1.007214E-2
6.755000E-8	1.021089E-2
6.760000E-8	1.037362E-2
6.765000E-8	1.055177E-2
6.770000E-8	1.076075E-2
6.775000E-8	1.093033E-2
6.780000E-8	1.108792E-2
6.785000E-8	1.121640E-2
6.790000E-8	1.134315E-2
6.795000E-8	1.145621E-2
6.800000E-8	1.150417E-2
6.805000E-8	1.155899E-2
6.810000E-8	1.164292E-2
6.815000E-8	1.174398E-2
6.820000E-8	1.183820E-2
6.825000E-8	1.197523E-2
6.830000E-8	1.210028E-2
6.835000E-8	1.219278E-2
6.840000E-8	1.225958E-2
6.845000E-8	1.227500E-2
6.850000E-8	1.228528E-2
6.855000E-8	1.225444E-2
6.860000E-8	1.214653E-2
6.865000E-8	1.204718E-2
6.870000E-8	1.193926E-2
6.875000E-8	1.180565E-2
6.880000E-8	1.167718E-2
6.885000E-8	1.156755E-2
6.890000E-8	1.143394E-2
6.895000E-8	1.134658E-2
6.900000E-8	1.126265E-2
6.905000E-8	1.117700E-2
6.910000E-8	1.108621E-2
6.915000E-8	1.101427E-2
6.920000E-8	1.090806E-2
6.925000E-8	1.084982E-2
6.930000E-8	1.080015E-2
6.935000E-8	1.074533E-2
6.940000E-8	1.069908E-2
6.945000E-8	1.065969E-2
6.950000E-8	1.059288E-2
6.955000E-8	1.049010E-2
6.960000E-8	1.039247E-2
6.965000E-8	1.032909E-2
6.970000E-8	1.023488E-2
6.975000E-8	1.014751E-2
6.980000E-8	1.000877E-2
6.985000E-8	9.899137E-3
6.990000E-8	9.808351E-3
6.995000E-8	9.703861E-3
7.000000E-8	9.654185E-3
7.005000E-8	9.659324E-3
7.010000E-8	9.693583E-3
7.015000E-8	9.760388E-3
7.020000E-8	9.847748E-3
7.025000E-8	9.959090E-3
7.030000E-8	1.007557E-2
7.035000E-8	1.023488E-2
7.040000E-8	1.038904E-2
7.045000E-8	1.051751E-2
7.050000E-8	1.064084E-2
7.055000E-8	1.073334E-2
7.060000E-8	1.081899E-2
7.065000E-8	1.090293E-2
7.070000E-8	1.097487E-2
7.075000E-8	1.102968E-2
7.080000E-8	1.107251E-2
7.085000E-8	1.114103E-2
7.090000E-8	1.121640E-2
7.095000E-8	1.132089E-2
7.100000E-8	1.141681E-2
7.105000E-8	1.153158E-2
7.110000E-8	1.164121E-2
7.115000E-8	1.174741E-2
7.120000E-8	1.182963E-2
7.125000E-8	1.187588E-2
7.130000E-8	1.189472E-2
7.135000E-8	1.185190E-2
7.140000E-8	1.176111E-2
7.145000E-8	1.160010E-2
7.150000E-8	1.143223E-2
7.155000E-8	1.120783E-2
7.160000E-8	1.098857E-2
7.165000E-8	1.075390E-2
7.170000E-8	1.050210E-2
7.175000E-8	1.026400E-2
7.180000E-8	1.006701E-2
7.185000E-8	9.897424E-3
7.190000E-8	9.763814E-3
7.195000E-8	9.647333E-3
7.200000E-8	9.541130E-3
7.205000E-8	9.462335E-3
7.210000E-8	9.380113E-3
7.215000E-8	9.287614E-3
7.220000E-8	9.244790E-3
7.225000E-8	9.225947E-3
7.230000E-8	9.183124E-3
7.235000E-8	9.200253E-3
7.240000E-8	9.210531E-3
7.245000E-8	9.285901E-3
7.250000E-8	9.347567E-3
7.255000E-8	9.424650E-3
7.260000E-8	9.559973E-3
7.265000E-8	9.705574E-3
7.270000E-8	9.871730E-3
7.275000E-8	1.001733E-2
7.280000E-8	1.018177E-2
7.285000E-8	1.034793E-2
7.290000E-8	1.050723E-2
7.295000E-8	1.064427E-2
7.300000E-8	1.074362E-2
7.305000E-8	1.082413E-2
7.310000E-8	1.088066E-2
7.315000E-8	1.090978E-2
7.320000E-8	1.093547E-2
7.325000E-8	1.093547E-2
7.330000E-8	1.090635E-2
7.335000E-8	1.085668E-2
7.340000E-8	1.081557E-2
7.345000E-8	1.078473E-2
7.350000E-8	1.073506E-2
7.355000E-8	1.069737E-2
7.360000E-8	1.065969E-2
7.365000E-8	1.062029E-2
7.370000E-8	1.057575E-2
7.375000E-8	1.054834E-2
7.380000E-8	1.049010E-2
7.385000E-8	1.044214E-2
7.390000E-8	1.041302E-2
7.395000E-8	1.039589E-2
7.400000E-8	1.038390E-2
7.405000E-8	1.036163E-2
7.410000E-8	1.031024E-2
7.415000E-8	1.019890E-2
7.420000E-8	1.010298E-2
7.425000E-8	9.972794E-3
7.430000E-8	9.825480E-3
7.435000E-8	9.673027E-3
7.440000E-8	9.484603E-3
7.445000E-8	9.279049E-3
7.450000E-8	9.099189E-3
7.455000E-8	8.986134E-3
7.460000E-8	8.905626E-3
7.465000E-8	8.854237E-3
7.470000E-8	8.830256E-3
7.475000E-8	8.852524E-3
7.480000E-8	8.871367E-3
7.485000E-8	8.972431E-3
7.490000E-8	9.066643E-3
7.495000E-8	9.159142E-3
7.500000E-8	9.256781E-3
7.505000E-8	9.340715E-3
7.510000E-8	9.419511E-3
7.515000E-8	9.467473E-3
7.520000E-8	9.565112E-3
7.525000E-8	9.621639E-3
7.530000E-8	9.643907E-3
7.535000E-8	9.616500E-3
7.540000E-8	9.619926E-3
7.545000E-8	9.616500E-3
7.550000E-8	9.609648E-3
7.555000E-8	9.623352E-3
7.560000E-8	9.669602E-3
7.565000E-8	9.736407E-3
7.570000E-8	9.837471E-3
7.575000E-8	9.916266E-3
7.580000E-8	9.984784E-3
7.585000E-8	1.006187E-2
7.590000E-8	1.010469E-2
7.595000E-8	1.014066E-2
7.600000E-8	1.015265E-2
7.605000E-8	1.016464E-2
7.610000E-8	1.014238E-2
7.615000E-8	1.008242E-2
7.620000E-8	1.002590E-2
7.625000E-8	9.897424E-3
7.630000E-8	9.755249E-3
7.635000E-8	9.613074E-3
7.640000E-8	9.500020E-3
7.645000E-8	9.397243E-3
7.650000E-8	9.311595E-3
7.655000E-8	9.253355E-3
7.660000E-8	9.207105E-3
7.665000E-8	9.219096E-3
7.670000E-8	9.213957E-3
7.675000E-8	9.232799E-3
7.680000E-8	9.265345E-3
7.685000E-8	9.315021E-3
7.690000E-8	9.350993E-3
7.695000E-8	9.325299E-3
7.700000E-8	9.277336E-3
7.705000E-8	9.181411E-3
7.710000E-8	9.085486E-3
7.715000E-8	8.948450E-3
7.720000E-8	8.838821E-3
7.725000E-8	8.749747E-3
7.730000E-8	8.665813E-3
7.735000E-8	8.605860E-3
7.740000E-8	8.569888E-3
7.745000E-8	8.569888E-3
7.750000E-8	8.643544E-3
7.755000E-8	8.703498E-3
7.760000E-8	8.782293E-3
7.765000E-8	8.871367E-3
7.770000E-8	8.939885E-3
7.775000E-8	8.996412E-3
7.780000E-8	9.059791E-3
7.785000E-8	9.123170E-3
7.790000E-8	9.164281E-3
7.795000E-8	9.212244E-3
7.800000E-8	9.294465E-3
7.805000E-8	9.361271E-3
7.810000E-8	9.465761E-3
7.815000E-8	9.599371E-3
7.820000E-8	9.732981E-3
7.825000E-8	9.839184E-3
7.830000E-8	9.941961E-3
7.835000E-8	9.996775E-3
7.840000E-8	1.006872E-2
7.845000E-8	1.006701E-2
7.850000E-8	1.001390E-2
7.855000E-8	9.912840E-3
7.860000E-8	9.748397E-3
7.865000E-8	9.551408E-3
7.870000E-8	9.356132E-3
7.875000E-8	9.140300E-3
7.880000E-8	8.946737E-3
7.885000E-8	8.760025E-3
7.890000E-8	8.583591E-3
7.895000E-8	8.449981E-3
7.900000E-8	8.371185E-3
7.905000E-8	8.371185E-3
7.910000E-8	8.384889E-3
7.915000E-8	8.482527E-3
7.920000E-8	8.576739E-3
7.925000E-8	8.694933E-3
7.930000E-8	8.826830E-3
7.935000E-8	8.921042E-3
7.940000E-8	8.967292E-3
7.945000E-8	8.969005E-3
7.950000E-8	8.967292E-3
7.955000E-8	8.909052E-3
7.960000E-8	8.833682E-3
7.965000E-8	8.700072E-3
7.970000E-8	8.559610E-3
7.975000E-8	8.441416E-3
7.980000E-8	8.321510E-3
7.985000E-8	8.220446E-3
7.990000E-8	8.124521E-3
7.995000E-8	8.079984E-3
8.000000E-8	8.037160E-3
8.005000E-8	8.042299E-3
8.010000E-8	8.049151E-3
8.015000E-8	8.069706E-3
8.020000E-8	8.110817E-3
8.025000E-8	8.153641E-3
8.030000E-8	8.237575E-3
8.035000E-8	8.297529E-3
8.040000E-8	8.352343E-3
8.045000E-8	8.379750E-3
8.050000E-8	8.431139E-3
8.055000E-8	8.497944E-3
8.060000E-8	8.568175E-3
8.065000E-8	8.622989E-3
8.070000E-8	8.684655E-3
8.075000E-8	8.744609E-3
8.080000E-8	8.809701E-3
8.085000E-8	8.886783E-3
8.090000E-8	8.948450E-3
8.095000E-8	9.018681E-3
8.100000E-8	9.102615E-3
8.105000E-8	9.189976E-3
8.110000E-8	9.279049E-3
8.115000E-8	9.376687E-3
8.120000E-8	9.443492E-3
8.125000E-8	9.510297E-3
8.130000E-8	9.561686E-3
8.135000E-8	9.611361E-3
8.140000E-8	9.635343E-3
8.145000E-8	9.674740E-3
8.150000E-8	9.693583E-3
8.155000E-8	9.654185E-3
8.160000E-8	9.628491E-3
8.165000E-8	9.553121E-3
8.170000E-8	9.441779E-3
8.175000E-8	9.292753E-3
8.180000E-8	9.130022E-3
8.185000E-8	8.974144E-3
8.190000E-8	8.804562E-3
8.195000E-8	8.645257E-3
8.200000E-8	8.468824E-3
8.205000E-8	8.304380E-3
8.210000E-8	8.167344E-3
8.215000E-8	8.030308E-3
8.220000E-8	7.939522E-3
8.225000E-8	7.893272E-3
8.230000E-8	7.927531E-3
8.235000E-8	7.937809E-3
8.240000E-8	7.987485E-3
8.245000E-8	8.054290E-3
8.250000E-8	8.124521E-3
8.255000E-8	8.179335E-3
8.260000E-8	8.222159E-3
8.265000E-8	8.249566E-3
8.270000E-8	8.242714E-3
8.275000E-8	8.239288E-3
8.280000E-8	8.239288E-3
8.285000E-8	8.187900E-3
8.290000E-8	8.187900E-3
8.295000E-8	8.172483E-3
8.300000E-8	8.211881E-3
8.305000E-8	8.266695E-3
8.310000E-8	8.330075E-3
8.315000E-8	8.415722E-3
8.320000E-8	8.518499E-3
8.325000E-8	8.583591E-3
8.330000E-8	8.658961E-3
8.335000E-8	8.742896E-3
8.340000E-8	8.795997E-3
8.345000E-8	8.826830E-3
8.350000E-8	8.866228E-3
8.355000E-8	8.878219E-3
8.360000E-8	8.838821E-3
8.365000E-8	8.814839E-3
8.370000E-8	8.772016E-3
8.375000E-8	8.758312E-3
8.380000E-8	8.717201E-3
8.385000E-8	8.658961E-3
8.390000E-8	8.602434E-3
8.395000E-8	8.545906E-3
8.400000E-8	8.470537E-3
8.405000E-8	8.400306E-3
8.410000E-8	8.383176E-3
8.415000E-8	8.340352E-3
8.420000E-8	8.316371E-3
8.425000E-8	8.311232E-3
8.430000E-8	8.290677E-3
8.435000E-8	8.276973E-3
8.440000E-8	8.275260E-3
8.445000E-8	8.268408E-3
8.450000E-8	8.237575E-3
8.455000E-8	8.187900E-3
8.460000E-8	8.153641E-3
8.465000E-8	8.090262E-3
8.470000E-8	8.028595E-3
8.475000E-8	7.999475E-3
8.480000E-8	7.961790E-3
8.485000E-8	7.946374E-3
8.490000E-8	7.942948E-3
8.495000E-8	7.929244E-3
8.500000E-8	7.941235E-3
8.505000E-8	7.946374E-3
8.510000E-8	7.949800E-3
8.515000E-8	7.966929E-3
8.520000E-8	7.984059E-3
8.525000E-8	7.997762E-3
8.530000E-8	8.037160E-3
8.535000E-8	8.030308E-3
8.540000E-8	8.016605E-3
8.545000E-8	8.011466E-3
8.550000E-8	7.966929E-3
8.555000E-8	7.932670E-3
8.560000E-8	7.905263E-3
8.565000E-8	7.864152E-3
8.570000E-8	7.799060E-3
8.575000E-8	7.701422E-3
8.580000E-8	7.662024E-3
8.585000E-8	7.620913E-3
8.590000E-8	7.632904E-3
8.595000E-8	7.627765E-3
8.600000E-8	7.656885E-3
8.605000E-8	7.696283E-3
8.610000E-8	7.727116E-3
8.615000E-8	7.773366E-3
8.620000E-8	7.812764E-3
8.625000E-8	7.865865E-3
8.630000E-8	7.939522E-3
8.635000E-8	8.016605E-3
8.640000E-8	8.071419E-3
8.645000E-8	8.100539E-3
8.650000E-8	8.112530E-3
8.655000E-8	8.105678E-3
8.660000E-8	8.044012E-3
8.665000E-8	8.001188E-3
8.670000E-8	7.924105E-3
8.675000E-8	7.860726E-3
8.680000E-8	7.788782E-3
8.685000E-8	7.708274E-3
8.690000E-8	7.622626E-3
8.695000E-8	7.512997E-3
8.700000E-8	7.415359E-3
8.705000E-8	7.285175E-3
8.710000E-8	7.185824E-3
8.715000E-8	7.108741E-3
8.720000E-8	7.045362E-3
8.725000E-8	7.009390E-3
8.730000E-8	6.963140E-3
8.735000E-8	6.918604E-3
8.740000E-8	6.886058E-3
8.745000E-8	6.904900E-3
8.750000E-8	6.889484E-3
8.755000E-8	6.935733E-3
8.760000E-8	6.963140E-3
8.765000E-8	7.005964E-3
8.770000E-8	7.083047E-3
8.775000E-8	7.163556E-3
8.780000E-8	7.220083E-3
8.785000E-8	7.286888E-3
8.790000E-8	7.393091E-3
8.795000E-8	7.492442E-3
8.800000E-8	7.602071E-3
8.805000E-8	7.699709E-3
8.810000E-8	7.773366E-3
8.815000E-8	7.840171E-3
8.820000E-8	7.884708E-3
8.825000E-8	7.865865E-3
8.830000E-8	7.816190E-3
8.835000E-8	7.761375E-3
8.840000E-8	7.674015E-3
8.845000E-8	7.578090E-3
8.850000E-8	7.480451E-3
8.855000E-8	7.357119E-3
8.860000E-8	7.235500E-3
8.865000E-8	7.165269E-3
8.870000E-8	7.089899E-3
8.875000E-8	7.048788E-3
8.880000E-8	7.038510E-3
8.885000E-8	7.045362E-3
8.890000E-8	7.069343E-3
8.895000E-8	7.095038E-3
8.900000E-8	7.113880E-3
8.905000E-8	7.132723E-3
8.910000E-8	7.151565E-3
8.915000E-8	7.158417E-3
8.920000E-8	7.113880E-3
8.925000E-8	7.041936E-3
8.930000E-8	6.947724E-3
8.935000E-8	6.834669E-3
8.940000E-8	6.723327E-3
8.945000E-8	6.588004E-3
8.950000E-8	6.521199E-3
8.955000E-8	6.459533E-3
8.960000E-8	6.392728E-3
8.965000E-8	6.360182E-3
8.970000E-8	6.322497E-3
8.975000E-8	6.279673E-3
8.980000E-8	6.284812E-3
8.985000E-8	6.313932E-3
8.990000E-8	6.361895E-3
8.995000E-8	6.423561E-3
9.000000E-8	6.505783E-3
9.005000E-8	6.593143E-3
9.010000E-8	6.685643E-3
9.015000E-8	6.790133E-3
9.020000E-8	6.928881E-3
9.025000E-8	7.053927E-3
9.030000E-8	7.127584E-3
9.035000E-8	7.190963E-3
9.040000E-8	7.233787E-3
9.045000E-8	7.268046E-3
9.050000E-8	7.307443E-3
9.055000E-8	7.346841E-3
9.060000E-8	7.372536E-3
9.065000E-8	7.413646E-3
9.070000E-8	7.466748E-3
9.075000E-8	7.512997E-3
9.080000E-8	7.521562E-3
9.085000E-8	7.497581E-3
9.090000E-8	7.475313E-3
9.095000E-8	7.389665E-3
9.100000E-8	7.319434E-3
9.105000E-8	7.208092E-3
9.110000E-8	7.072769E-3
9.115000E-8	6.923743E-3
9.120000E-8	6.781568E-3
9.125000E-8	6.658235E-3
9.130000E-8	6.591430E-3
9.135000E-8	6.533190E-3
9.140000E-8	6.540042E-3
9.145000E-8	6.593143E-3
9.150000E-8	6.670226E-3
9.155000E-8	6.803836E-3
9.160000E-8	6.903187E-3
9.165000E-8	7.036797E-3
9.170000E-8	7.202953E-3
9.175000E-8	7.346841E-3
9.180000E-8	7.458183E-3
9.185000E-8	7.518136E-3
9.190000E-8	7.571238E-3
9.195000E-8	7.571238E-3
9.200000E-8	7.519849E-3
9.205000E-8	7.449618E-3
9.210000E-8	7.346841E-3
9.215000E-8	7.237212E-3
9.220000E-8	7.154991E-3
9.225000E-8	7.086473E-3
9.230000E-8	7.062492E-3
9.235000E-8	7.055640E-3
9.240000E-8	7.074482E-3
9.245000E-8	7.125871E-3
9.250000E-8	7.225222E-3
9.255000E-8	7.327999E-3
9.260000E-8	7.441054E-3
9.265000E-8	7.521562E-3
9.270000E-8	7.574664E-3
9.275000E-8	7.579802E-3
9.280000E-8	7.540405E-3
9.285000E-8	7.446192E-3
9.290000E-8	7.290314E-3
9.295000E-8	7.163556E-3
9.300000E-8	6.966566E-3
9.305000E-8	6.802123E-3
9.310000E-8	6.654809E-3
9.315000E-8	6.524625E-3
9.320000E-8	6.437265E-3
9.325000E-8	6.385876E-3
9.330000E-8	6.336201E-3
9.335000E-8	6.307081E-3
9.340000E-8	6.360182E-3
9.345000E-8	6.459533E-3
9.350000E-8	6.579440E-3
9.355000E-8	6.687356E-3
9.360000E-8	6.755874E-3
9.365000E-8	6.810688E-3
9.370000E-8	6.856938E-3
9.375000E-8	6.867215E-3
9.380000E-8	6.802123E-3
9.385000E-8	6.714763E-3
9.390000E-8	6.581153E-3
9.395000E-8	6.483514E-3
9.400000E-8	6.411571E-3
9.405000E-8	6.360182E-3
9.410000E-8	6.327636E-3
9.415000E-8	6.356756E-3
9.420000E-8	6.449255E-3
9.425000E-8	6.552032E-3
9.430000E-8	6.718189E-3
9.435000E-8	6.887771E-3
9.440000E-8	7.052214E-3
9.445000E-8	7.184111E-3
9.450000E-8	7.285175E-3
9.455000E-8	7.362258E-3
9.460000E-8	7.411933E-3
9.465000E-8	7.437628E-3
9.470000E-8	7.422211E-3
9.475000E-8	7.357119E-3
9.480000E-8	7.300592E-3
9.485000E-8	7.245777E-3
9.490000E-8	7.214944E-3
9.495000E-8	7.189250E-3
9.500000E-8	7.158417E-3
9.505000E-8	7.127584E-3
9.510000E-8	7.117306E-3
9.515000E-8	7.098464E-3
9.520000E-8	7.057353E-3
9.525000E-8	7.041936E-3
9.530000E-8	6.992261E-3
9.535000E-8	6.947724E-3
9.540000E-8	6.901474E-3
9.545000E-8	6.858651E-3
9.550000E-8	6.824392E-3
9.555000E-8	6.755874E-3
9.560000E-8	6.704485E-3
9.565000E-8	6.680504E-3
9.570000E-8	6.689068E-3
9.575000E-8	6.697633E-3
9.580000E-8	6.702772E-3
9.585000E-8	6.673652E-3
9.590000E-8	6.651384E-3
9.595000E-8	6.642819E-3
9.600000E-8	6.610273E-3
9.605000E-8	6.605134E-3
9.610000E-8	6.608560E-3
9.615000E-8	6.599995E-3
9.620000E-8	6.588004E-3
9.625000E-8	6.622263E-3
9.630000E-8	6.651384E-3
9.635000E-8	6.697633E-3
9.640000E-8	6.714763E-3
9.645000E-8	6.759299E-3
9.650000E-8	6.788420E-3
9.655000E-8	6.776429E-3
9.660000E-8	6.737031E-3
9.665000E-8	6.670226E-3
9.670000E-8	6.582866E-3
9.675000E-8	6.457820E-3
9.680000E-8	6.344766E-3
9.685000E-8	6.211155E-3
9.690000E-8	6.092962E-3
9.695000E-8	6.055277E-3
9.700000E-8	6.055277E-3
9.705000E-8	6.094675E-3
9.710000E-8	6.180322E-3
9.715000E-8	6.255692E-3
9.720000E-8	6.397867E-3
9.725000E-8	6.502357E-3
9.730000E-8	6.613699E-3
9.735000E-8	6.701059E-3
9.740000E-8	6.764438E-3
9.745000E-8	6.795271E-3
9.750000E-8	6.791845E-3
9.755000E-8	6.728466E-3
9.760000E-8	6.635967E-3
9.765000E-8	6.528051E-3
9.770000E-8	6.394441E-3
9.775000E-8	6.271109E-3
9.780000E-8	6.135786E-3
9.785000E-8	6.022731E-3
9.790000E-8	5.969629E-3
9.795000E-8	5.947361E-3
9.800000E-8	5.954213E-3
9.805000E-8	6.009027E-3
9.810000E-8	6.111804E-3
9.815000E-8	6.219720E-3
9.820000E-8	6.337914E-3
9.825000E-8	6.459533E-3
9.830000E-8	6.533190E-3
9.835000E-8	6.521199E-3
9.840000E-8	6.538329E-3
9.845000E-8	6.478376E-3
9.850000E-8	6.408145E-3
9.855000E-8	6.300229E-3
9.860000E-8	6.185461E-3
9.865000E-8	6.079258E-3
9.870000E-8	5.971342E-3
9.875000E-8	5.880556E-3
9.880000E-8	5.818890E-3
9.885000E-8	5.815464E-3
9.890000E-8	5.863427E-3
9.895000E-8	5.967916E-3
9.900000E-8	6.075832E-3
9.905000E-8	6.182035E-3
9.910000E-8	6.320784E-3
9.915000E-8	6.401293E-3
9.920000E-8	6.418422E-3
9.925000E-8	6.403006E-3
9.930000E-8	6.367034E-3
9.935000E-8	6.295090E-3
9.940000E-8	6.235137E-3
9.945000E-8	6.158054E-3
9.950000E-8	6.077545E-3
9.955000E-8	5.976481E-3
9.960000E-8	5.902824E-3
9.965000E-8	5.801760E-3
9.970000E-8	5.719539E-3
9.975000E-8	5.654447E-3
9.980000E-8	5.563660E-3
9.985000E-8	5.490003E-3
9.990000E-8	5.416347E-3
9.995000E-8	5.327273E-3
1.000000E-7	5.236487E-3
1.000500E-7	5.190237E-3
1.001000E-7	5.150839E-3
1.001500E-7	5.138849E-3
1.002000E-7	5.150839E-3
1.002500E-7	5.217644E-3
1.003000E-7	5.316995E-3
1.003500E-7	5.419772E-3
1.004000E-7	5.524262E-3
1.004500E-7	5.661298E-3
1.005000E-7	5.796621E-3
1.005500E-7	5.928519E-3
1.006000E-7	6.034722E-3
1.006500E-7	6.111804E-3
1.007000E-7	6.159767E-3
1.007500E-7	6.158054E-3
1.008000E-7	6.137499E-3
1.008500E-7	6.108378E-3
1.009000E-7	6.053564E-3
1.009500E-7	5.983333E-3
1.010000E-7	5.902824E-3
1.010500E-7	5.853149E-3
1.011000E-7	5.800047E-3
1.011500E-7	5.741807E-3
1.012000E-7	5.690419E-3
1.012500E-7	5.671576E-3
1.013000E-7	5.678428E-3
1.013500E-7	5.693844E-3
1.014000E-7	5.731529E-3
1.014500E-7	5.781205E-3
1.015000E-7	5.877130E-3
1.015500E-7	5.985046E-3
1.016000E-7	6.056990E-3
1.016500E-7	6.128934E-3
1.017000E-7	6.183748E-3
1.017500E-7	6.211155E-3
1.018000E-7	6.200878E-3
1.018500E-7	6.188887E-3
1.019000E-7	6.147776E-3
1.019500E-7	6.094675E-3
1.020000E-7	6.034722E-3
1.020500E-7	5.904537E-3
1.021000E-7	5.782918E-3
1.021500E-7	5.640743E-3
1.022000E-7	5.534540E-3
1.022500E-7	5.412921E-3
1.023000E-7	5.294727E-3
1.023500E-7	5.200515E-3
1.024000E-7	5.114867E-3
1.024500E-7	5.080608E-3
1.025000E-7	5.041211E-3
1.025500E-7	5.022368E-3
1.026000E-7	5.042923E-3
1.026500E-7	5.121719E-3
1.027000E-7	5.222783E-3
1.027500E-7	5.344403E-3
1.028000E-7	5.522549E-3
1.028500E-7	5.673289E-3
1.029000E-7	5.818890E-3
1.029500E-7	5.950787E-3
1.030000E-7	6.036434E-3
1.030500E-7	6.113517E-3
1.031000E-7	6.147776E-3
1.031500E-7	6.183748E-3
1.032000E-7	6.139212E-3
1.032500E-7	6.089536E-3
1.033000E-7	6.005601E-3
1.033500E-7	5.889121E-3
1.034000E-7	5.743520E-3
1.034500E-7	5.606484E-3
1.035000E-7	5.457457E-3
1.035500E-7	5.315283E-3
1.036000E-7	5.186811E-3
1.036500E-7	5.085747E-3
1.037000E-7	5.015516E-3
1.037500E-7	4.967554E-3
1.038000E-7	4.924730E-3
1.038500E-7	4.929869E-3
1.039000E-7	4.958989E-3
1.039500E-7	4.972693E-3
1.040000E-7	5.013803E-3
1.040500E-7	5.044636E-3
1.041000E-7	5.068618E-3
1.041500E-7	5.111441E-3
1.042000E-7	5.181672E-3
1.042500E-7	5.253616E-3
1.043000E-7	5.344403E-3
1.043500E-7	5.411208E-3
1.044000E-7	5.460883E-3
1.044500E-7	5.491716E-3
1.045000E-7	5.484865E-3
1.045500E-7	5.442041E-3
1.046000E-7	5.378662E-3
1.046500E-7	5.257042E-3
1.047000E-7	5.099451E-3
1.047500E-7	4.962415E-3
1.048000E-7	4.852786E-3
1.048500E-7	4.768851E-3
1.049000E-7	4.715750E-3
1.049500E-7	4.751722E-3
1.050000E-7	4.839082E-3
1.050500E-7	4.962415E-3
1.051000E-7	5.109729E-3
1.051500E-7	5.255329E-3
1.052000E-7	5.397504E-3
1.052500E-7	5.527688E-3
1.053000E-7	5.632178E-3
1.053500E-7	5.700696E-3
1.054000E-7	5.697270E-3
1.054500E-7	5.714400E-3
1.055000E-7	5.733242E-3
1.055500E-7	5.709261E-3
1.056000E-7	5.688706E-3
1.056500E-7	5.640743E-3
1.057000E-7	5.597919E-3
1.057500E-7	5.568799E-3
1.058000E-7	5.553383E-3
1.058500E-7	5.573938E-3
1.059000E-7	5.570512E-3
1.059500E-7	5.609910E-3
1.060000E-7	5.644169E-3
1.060500E-7	5.663011E-3
1.061000E-7	5.625326E-3
1.061500E-7	5.613336E-3
1.062000E-7	5.573938E-3
1.062500E-7	5.510559E-3
1.063000E-7	5.435189E-3
1.063500E-7	5.323847E-3
1.064000E-7	5.212506E-3
1.064500E-7	5.101164E-3
1.065000E-7	5.013803E-3
1.065500E-7	4.923017E-3
1.066000E-7	4.895610E-3
1.066500E-7	4.869916E-3
1.067000E-7	4.914452E-3
1.067500E-7	4.976118E-3
1.068000E-7	5.068618E-3
1.068500E-7	5.133710E-3
1.069000E-7	5.231348E-3
1.069500E-7	5.320421E-3
1.070000E-7	5.347829E-3
1.070500E-7	5.368384E-3
1.071000E-7	5.363245E-3
1.071500E-7	5.327273E-3
1.072000E-7	5.275885E-3
1.072500E-7	5.202228E-3
1.073000E-7	5.120006E-3
1.073500E-7	5.013803E-3
1.074000E-7	4.933295E-3
1.074500E-7	4.835657E-3
1.075000E-7	4.763713E-3
1.075500E-7	4.722602E-3
1.076000E-7	4.691769E-3
1.076500E-7	4.696908E-3
1.077000E-7	4.695195E-3
1.077500E-7	4.717463E-3
1.078000E-7	4.722602E-3
1.078500E-7	4.760287E-3
1.079000E-7	4.780842E-3
1.079500E-7	4.779129E-3
1.080000E-7	4.811675E-3
1.080500E-7	4.840795E-3
1.081000E-7	4.866490E-3
1.081500E-7	4.888758E-3
1.082000E-7	4.921304E-3
1.082500E-7	4.878480E-3
1.083000E-7	4.839082E-3
1.083500E-7	4.765426E-3
1.084000E-7	4.674639E-3
1.084500E-7	4.582140E-3
1.085000E-7	4.518761E-3
1.085500E-7	4.438252E-3
1.086000E-7	4.376586E-3
1.086500E-7	4.342327E-3
1.087000E-7	4.333762E-3
1.087500E-7	4.397141E-3
1.088000E-7	4.484502E-3
1.088500E-7	4.618112E-3
1.089000E-7	4.715750E-3
1.089500E-7	4.833944E-3
1.090000E-7	4.933295E-3
1.090500E-7	5.008664E-3
1.091000E-7	5.039498E-3
1.091500E-7	5.056627E-3
1.092000E-7	5.013803E-3
1.092500E-7	4.941859E-3
1.093000E-7	4.926443E-3
1.093500E-7	4.881906E-3
1.094000E-7	4.839082E-3
1.094500E-7	4.856212E-3
1.095000E-7	4.883619E-3
1.095500E-7	4.929869E-3
1.096000E-7	4.976118E-3
1.096500E-7	5.034359E-3
1.097000E-7	5.106303E-3
1.097500E-7	5.128571E-3
1.098000E-7	5.178247E-3
1.098500E-7	5.210793E-3
1.099000E-7	5.197089E-3
1.099500E-7	5.174821E-3
1.100000E-7	5.120006E-3
1.100500E-7	5.077182E-3
1.101000E-7	5.042923E-3
1.101500E-7	5.012090E-3
1.102000E-7	4.957276E-3
1.102500E-7	4.923017E-3
1.103000E-7	4.933295E-3
1.103500E-7	4.916165E-3
1.104000E-7	4.931582E-3
1.104500E-7	4.946998E-3
1.105000E-7	5.008664E-3
1.105500E-7	5.034359E-3
1.106000E-7	5.024081E-3
1.106500E-7	5.018942E-3
1.107000E-7	5.020655E-3
1.107500E-7	5.030933E-3
1.108000E-7	5.063479E-3
1.108500E-7	5.104590E-3
1.109000E-7	5.121719E-3
1.109500E-7	5.111441E-3
1.110000E-7	5.089173E-3
1.110500E-7	5.015516E-3
1.111000E-7	4.967554E-3
1.111500E-7	4.905887E-3
1.112000E-7	4.823666E-3
1.112500E-7	4.719176E-3
1.113000E-7	4.606121E-3
1.113500E-7	4.523900E-3
1.114000E-7	4.422836E-3
1.114500E-7	4.347466E-3
1.115000E-7	4.320059E-3
1.115500E-7	4.333762E-3
1.116000E-7	4.376586E-3
1.116500E-7	4.458808E-3
1.117000E-7	4.544455E-3
1.117500E-7	4.619825E-3
1.118000E-7	4.703759E-3
1.118500E-7	4.762000E-3
1.119000E-7	4.792833E-3
1.119500E-7	4.825379E-3
1.120000E-7	4.851073E-3
1.120500E-7	4.845934E-3
1.121000E-7	4.852786E-3
1.121500E-7	4.845934E-3
1.122000E-7	4.888758E-3
1.122500E-7	4.892184E-3
1.123000E-7	4.916165E-3
1.123500E-7	4.938434E-3
1.124000E-7	4.955563E-3
1.124500E-7	4.984683E-3
1.125000E-7	4.974405E-3
1.125500E-7	4.905887E-3
1.126000E-7	4.837369E-3
1.126500E-7	4.777416E-3
1.127000E-7	4.664362E-3
1.127500E-7	4.568436E-3
1.128000E-7	4.457095E-3
1.128500E-7	4.392002E-3
1.129000E-7	4.335475E-3
1.129500E-7	4.342327E-3
1.130000E-7	4.368021E-3
1.130500E-7	4.415984E-3
1.131000E-7	4.530751E-3
1.131500E-7	4.640380E-3
1.132000E-7	4.707185E-3
1.132500E-7	4.830518E-3
1.133000E-7	4.965841E-3
1.133500E-7	5.056627E-3
1.134000E-7	5.133710E-3
1.134500E-7	5.200515E-3
1.135000E-7	5.234774E-3
1.135500E-7	5.215931E-3
1.136000E-7	5.166256E-3
1.136500E-7	5.142275E-3
1.137000E-7	5.096025E-3
1.137500E-7	5.058340E-3
1.138000E-7	5.027507E-3
1.138500E-7	5.037785E-3
1.139000E-7	5.036072E-3
1.139500E-7	5.058340E-3
1.140000E-7	5.118293E-3
1.140500E-7	5.174821E-3
1.141000E-7	5.212506E-3
1.141500E-7	5.260468E-3
1.142000E-7	5.298153E-3
1.142500E-7	5.320421E-3
1.143000E-7	5.328986E-3
1.143500E-7	5.320421E-3
1.144000E-7	5.310144E-3
1.144500E-7	5.234774E-3
1.145000E-7	5.113154E-3
1.145500E-7	4.989822E-3
1.146000E-7	4.861351E-3
1.146500E-7	4.727741E-3
1.147000E-7	4.571862E-3
1.147500E-7	4.458808E-3
1.148000E-7	4.371447E-3
1.148500E-7	4.314920E-3
1.149000E-7	4.290938E-3
1.149500E-7	4.332049E-3
1.150000E-7	4.400567E-3
1.150500E-7	4.469085E-3
1.151000E-7	4.573575E-3
1.151500E-7	4.688343E-3
1.152000E-7	4.785981E-3
1.152500E-7	4.854499E-3
1.153000E-7	4.916165E-3
1.153500E-7	4.964128E-3
1.154000E-7	4.953850E-3
1.154500E-7	4.924730E-3
1.155000E-7	4.899036E-3
1.155500E-7	4.852786E-3
1.156000E-7	4.782555E-3
1.156500E-7	4.715750E-3
1.157000E-7	4.633528E-3
1.157500E-7	4.546168E-3
1.158000E-7	4.451956E-3
1.158500E-7	4.325197E-3
1.159000E-7	4.253253E-3
1.159500E-7	4.208717E-3
1.160000E-7	4.143625E-3
1.160500E-7	4.061403E-3
1.161000E-7	3.963765E-3
1.161500E-7	3.893534E-3
1.162000E-7	3.816451E-3
1.162500E-7	3.754785E-3
1.163000E-7	3.713674E-3
1.163500E-7	3.715387E-3
1.164000E-7	3.768489E-3
1.164500E-7	3.847284E-3
1.165000E-7	3.991172E-3
1.165500E-7	4.143625E-3
1.166000E-7	4.270383E-3
1.166500E-7	4.434826E-3
1.167000E-7	4.522187E-3
1.167500E-7	4.600982E-3
1.168000E-7	4.635241E-3
1.168500E-7	4.643806E-3
1.169000E-7	4.604408E-3
1.169500E-7	4.515335E-3
1.170000E-7	4.410845E-3
1.170500E-7	4.309781E-3
1.171000E-7	4.251541E-3
1.171500E-7	4.200152E-3
1.172000E-7	4.167606E-3
1.172500E-7	4.172745E-3
1.173000E-7	4.205291E-3
1.173500E-7	4.248115E-3
1.174000E-7	4.285800E-3
1.174500E-7	4.311494E-3
1.175000E-7	4.325197E-3
1.175500E-7	4.344040E-3
1.176000E-7	4.345753E-3
1.176500E-7	4.376586E-3
1.177000E-7	4.426261E-3
1.177500E-7	4.482789E-3
1.178000E-7	4.530751E-3
1.178500E-7	4.590705E-3
1.179000E-7	4.616399E-3
1.179500E-7	4.652371E-3
1.180000E-7	4.666074E-3
1.180500E-7	4.621538E-3
1.181000E-7	4.571862E-3
1.181500E-7	4.527326E-3
1.182000E-7	4.501631E-3
1.182500E-7	4.487928E-3
1.183000E-7	4.501631E-3
1.183500E-7	4.530751E-3
1.184000E-7	4.585566E-3
1.184500E-7	4.654084E-3
1.185000E-7	4.719176E-3
1.185500E-7	4.809962E-3
1.186000E-7	4.897323E-3
1.186500E-7	4.998387E-3
1.187000E-7	5.034359E-3
1.187500E-7	5.030933E-3
1.188000E-7	4.976118E-3
1.188500E-7	4.885332E-3
1.189000E-7	4.739731E-3
1.189500E-7	4.558159E-3
1.190000E-7	4.361169E-3
1.190500E-7	4.181310E-3
1.191000E-7	4.028857E-3
1.191500E-7	3.888395E-3
1.192000E-7	3.780479E-3
1.192500E-7	3.754785E-3
1.193000E-7	3.756498E-3
1.193500E-7	3.777053E-3
1.194000E-7	3.837007E-3
1.194500E-7	3.867840E-3
1.195000E-7	3.908951E-3
1.195500E-7	3.944922E-3
1.196000E-7	3.943210E-3
1.196500E-7	3.915802E-3
1.197000E-7	3.852423E-3
1.197500E-7	3.747933E-3
1.198000E-7	3.626314E-3
1.198500E-7	3.514972E-3
1.199000E-7	3.431037E-3
1.199500E-7	3.383075E-3
1.200000E-7	3.386501E-3
1.200500E-7	3.432750E-3
1.201000E-7	3.537240E-3
1.201500E-7	3.670850E-3
1.202000E-7	3.797609E-3
1.202500E-7	3.951774E-3
1.203000E-7	4.093949E-3
1.203500E-7	4.251541E-3
1.204000E-7	4.338901E-3
1.204500E-7	4.388577E-3
1.205000E-7	4.395428E-3
1.205500E-7	4.328623E-3
1.206000E-7	4.229272E-3
1.206500E-7	4.073394E-3
1.207000E-7	3.912376E-3
1.207500E-7	3.730804E-3
1.208000E-7	3.576638E-3
1.208500E-7	3.451593E-3
1.209000E-7	3.386501E-3
1.209500E-7	3.377936E-3
1.210000E-7	3.372797E-3
1.210500E-7	3.455019E-3
1.211000E-7	3.523537E-3
1.211500E-7	3.588629E-3
1.212000E-7	3.655434E-3
1.212500E-7	3.715387E-3
1.213000E-7	3.763350E-3
1.213500E-7	3.794183E-3
1.214000E-7	3.825016E-3
1.214500E-7	3.864414E-3
1.215000E-7	3.903812E-3
1.215500E-7	3.915802E-3
1.216000E-7	3.956913E-3
1.216500E-7	4.008302E-3
1.217000E-7	4.051125E-3
1.217500E-7	4.075107E-3
1.218000E-7	4.111079E-3
1.218500E-7	4.133347E-3
1.219000E-7	4.165893E-3
1.219500E-7	4.200152E-3
1.220000E-7	4.198439E-3
1.220500E-7	4.189874E-3
1.221000E-7	4.184735E-3
1.221500E-7	4.200152E-3
1.222000E-7	4.152189E-3
1.222500E-7	4.121356E-3
1.223000E-7	4.164180E-3
1.223500E-7	4.152189E-3
1.224000E-7	4.140199E-3
1.224500E-7	4.135060E-3
1.225000E-7	4.126495E-3
1.225500E-7	4.104227E-3
1.226000E-7	4.092236E-3
1.226500E-7	4.057977E-3
1.227000E-7	4.047699E-3
1.227500E-7	4.008302E-3
1.228000E-7	3.953487E-3
1.228500E-7	3.898673E-3
1.229000E-7	3.835294E-3
1.229500E-7	3.775340E-3
1.230000E-7	3.717100E-3
1.230500E-7	3.621175E-3
1.231000E-7	3.562935E-3
1.231500E-7	3.528676E-3
1.232000E-7	3.477287E-3
1.232500E-7	3.444741E-3
1.233000E-7	3.427612E-3
1.233500E-7	3.429325E-3
1.234000E-7	3.472148E-3
1.234500E-7	3.516685E-3
1.235000E-7	3.581777E-3
1.235500E-7	3.657147E-3
1.236000E-7	3.717100E-3
1.236500E-7	3.770202E-3
1.237000E-7	3.773627E-3
1.237500E-7	3.771915E-3
1.238000E-7	3.729091E-3
1.238500E-7	3.684554E-3
1.239000E-7	3.612610E-3
1.239500E-7	3.624601E-3
1.240000E-7	3.619462E-3
1.240500E-7	3.629740E-3
1.241000E-7	3.645156E-3
1.241500E-7	3.648582E-3
1.242000E-7	3.652008E-3
1.242500E-7	3.663999E-3
1.243000E-7	3.672563E-3
1.243500E-7	3.653721E-3
1.244000E-7	3.634879E-3
1.244500E-7	3.638304E-3
1.245000E-7	3.622888E-3
1.245500E-7	3.556083E-3
1.246000E-7	3.511546E-3
1.246500E-7	3.490991E-3
1.247000E-7	3.492704E-3
1.247500E-7	3.458445E-3
1.248000E-7	3.463584E-3
1.248500E-7	3.511546E-3
1.249000E-7	3.588629E-3
1.249500E-7	3.621175E-3
1.250000E-7	3.682841E-3
1.250500E-7	3.718813E-3
1.251000E-7	3.747933E-3
1.251500E-7	3.778766E-3
1.252000E-7	3.794183E-3
1.252500E-7	3.818164E-3
1.253000E-7	3.799322E-3
1.253500E-7	3.780479E-3
1.254000E-7	3.711961E-3
1.254500E-7	3.638304E-3
1.255000E-7	3.561222E-3
1.255500E-7	3.482426E-3
1.256000E-7	3.432750E-3
1.256500E-7	3.357381E-3
1.257000E-7	3.297427E-3
1.257500E-7	3.210067E-3
1.258000E-7	3.151827E-3
1.258500E-7	3.143262E-3
1.259000E-7	3.160391E-3
1.259500E-7	3.189512E-3
1.260000E-7	3.254604E-3
1.260500E-7	3.316270E-3
1.261000E-7	3.398491E-3
1.261500E-7	3.479000E-3
1.262000E-7	3.542379E-3
1.262500E-7	3.614323E-3
1.263000E-7	3.631453E-3
1.263500E-7	3.658860E-3
1.264000E-7	3.703397E-3
1.264500E-7	3.732517E-3
1.265000E-7	3.792470E-3
1.265500E-7	3.852423E-3
1.266000E-7	3.924367E-3
1.266500E-7	3.984320E-3
1.267000E-7	4.049412E-3
1.267500E-7	4.114505E-3
1.268000E-7	4.210430E-3
1.268500E-7	4.290938E-3
1.269000E-7	4.340614E-3
1.269500E-7	4.361169E-3
1.270000E-7	4.330336E-3
1.270500E-7	4.254966E-3
1.271000E-7	4.165893E-3
1.271500E-7	4.023718E-3
1.272000E-7	3.900386E-3
1.272500E-7	3.785618E-3
1.273000E-7	3.669138E-3
1.273500E-7	3.576638E-3
1.274000E-7	3.523537E-3
1.274500E-7	3.513259E-3
1.275000E-7	3.477287E-3
1.275500E-7	3.468722E-3
1.276000E-7	3.465296E-3
1.276500E-7	3.485852E-3
1.277000E-7	3.497843E-3
1.277500E-7	3.528676E-3
1.278000E-7	3.562935E-3
1.278500E-7	3.573212E-3
1.279000E-7	3.590342E-3
1.279500E-7	3.622888E-3
1.280000E-7	3.674276E-3
1.280500E-7	3.705109E-3
1.281000E-7	3.729091E-3
1.281500E-7	3.735943E-3
1.282000E-7	3.735943E-3
1.282500E-7	3.730804E-3
1.283000E-7	3.723952E-3
1.283500E-7	3.717100E-3
1.284000E-7	3.689693E-3
1.284500E-7	3.640017E-3
1.285000E-7	3.602332E-3
1.285500E-7	3.578351E-3
1.286000E-7	3.514972E-3
1.286500E-7	3.492704E-3
1.287000E-7	3.461871E-3
1.287500E-7	3.425899E-3
1.288000E-7	3.364232E-3
1.288500E-7	3.360807E-3
1.289000E-7	3.323122E-3
1.289500E-7	3.328260E-3
1.290000E-7	3.350529E-3
1.290500E-7	3.317983E-3
1.291000E-7	3.299140E-3
1.291500E-7	3.311131E-3
1.292000E-7	3.321409E-3
1.292500E-7	3.331686E-3
1.293000E-7	3.331686E-3
1.293500E-7	3.371084E-3
1.294000E-7	3.383075E-3
1.294500E-7	3.403630E-3
1.295000E-7	3.413908E-3
1.295500E-7	3.410482E-3
1.296000E-7	3.369371E-3
1.296500E-7	3.321409E-3
1.297000E-7	3.287150E-3
1.297500E-7	3.287150E-3
1.298000E-7	3.309418E-3
1.298500E-7	3.299140E-3
1.299000E-7	3.278585E-3
1.299500E-7	3.251178E-3
1.300000E-7	3.237474E-3
1.300500E-7	3.244326E-3
1.301000E-7	3.234048E-3
1.301500E-7	3.234048E-3
1.302000E-7	3.254604E-3
1.302500E-7	3.240900E-3
1.303000E-7	3.287150E-3
1.303500E-7	3.369371E-3
1.304000E-7	3.455019E-3
1.304500E-7	3.532102E-3
1.305000E-7	3.619462E-3
1.305500E-7	3.698258E-3
1.306000E-7	3.734230E-3
1.306500E-7	3.761637E-3
1.307000E-7	3.782192E-3
1.307500E-7	3.722239E-3
1.308000E-7	3.646869E-3
1.308500E-7	3.547518E-3
1.309000E-7	3.441315E-3
1.309500E-7	3.316270E-3
1.310000E-7	3.199789E-3
1.310500E-7	3.148401E-3
1.311000E-7	3.090160E-3
1.311500E-7	3.052476E-3
1.312000E-7	3.086735E-3
1.312500E-7	3.189512E-3
1.313000E-7	3.263168E-3
1.313500E-7	3.350529E-3
1.314000E-7	3.444741E-3
1.314500E-7	3.526963E-3
1.315000E-7	3.569786E-3
1.315500E-7	3.580064E-3
1.316000E-7	3.521824E-3
1.316500E-7	3.467009E-3
1.317000E-7	3.425899E-3
1.317500E-7	3.395066E-3
1.318000E-7	3.343677E-3
1.318500E-7	3.297427E-3
1.319000E-7	3.268307E-3
1.319500E-7	3.261455E-3
1.320000E-7	3.239187E-3
1.320500E-7	3.227196E-3
1.321000E-7	3.210067E-3
1.321500E-7	3.192937E-3
1.322000E-7	3.163817E-3
1.322500E-7	3.127845E-3
1.323000E-7	3.083309E-3
1.323500E-7	3.028494E-3
1.324000E-7	2.953124E-3
1.324500E-7	2.908588E-3
1.325000E-7	2.874329E-3
1.325500E-7	2.894884E-3
1.326000E-7	2.905162E-3
1.326500E-7	2.942847E-3
1.327000E-7	2.963402E-3
1.327500E-7	3.007939E-3
1.328000E-7	3.045624E-3
1.328500E-7	3.054188E-3
1.329000E-7	3.069605E-3
1.329500E-7	3.043911E-3
1.330000E-7	3.040485E-3
1.330500E-7	3.026781E-3
1.331000E-7	3.030207E-3
1.331500E-7	3.031920E-3
1.332000E-7	3.040485E-3
1.332500E-7	3.047337E-3
1.333000E-7	3.037059E-3
1.333500E-7	3.081596E-3
1.334000E-7	3.126132E-3
1.334500E-7	3.177521E-3
1.335000E-7	3.285437E-3
1.335500E-7	3.374510E-3
1.336000E-7	3.461871E-3
1.336500E-7	3.513259E-3
1.337000E-7	3.588629E-3
1.337500E-7	3.628027E-3
1.338000E-7	3.650295E-3
1.338500E-7	3.645156E-3
1.339000E-7	3.595481E-3
1.339500E-7	3.496130E-3
1.340000E-7	3.367658E-3
1.340500E-7	3.263168E-3
1.341000E-7	3.076457E-3
1.341500E-7	2.906875E-3
1.342000E-7	2.757848E-3
1.342500E-7	2.607108E-3
1.343000E-7	2.488915E-3
1.343500E-7	2.396416E-3
1.344000E-7	2.375860E-3
1.344500E-7	2.384425E-3
1.345000E-7	2.459795E-3
1.345500E-7	2.613960E-3
1.346000E-7	2.790394E-3
1.346500E-7	2.966828E-3
1.347000E-7	3.138123E-3
1.347500E-7	3.340251E-3
1.348000E-7	3.485852E-3
1.348500E-7	3.574925E-3
1.349000E-7	3.658860E-3
1.349500E-7	3.665712E-3
1.350000E-7	3.638304E-3
1.350500E-7	3.547518E-3
1.351000E-7	3.431037E-3
1.351500E-7	3.294001E-3
1.352000E-7	3.126132E-3
1.352500E-7	2.982245E-3
1.353000E-7	2.884606E-3
1.353500E-7	2.846922E-3
1.354000E-7	2.874329E-3
1.354500E-7	2.942847E-3
1.355000E-7	3.004513E-3
1.355500E-7	3.102151E-3
1.356000E-7	3.194650E-3
1.356500E-7	3.271733E-3
1.357000E-7	3.287150E-3
1.357500E-7	3.317983E-3
1.358000E-7	3.271733E-3
1.358500E-7	3.225483E-3
1.359000E-7	3.102151E-3
1.359500E-7	2.995948E-3
1.360000E-7	2.910301E-3
1.360500E-7	2.817801E-3
1.361000E-7	2.773265E-3
1.361500E-7	2.745857E-3
1.362000E-7	2.754422E-3
1.362500E-7	2.826366E-3
1.363000E-7	2.927430E-3
1.363500E-7	3.019929E-3
1.364000E-7	3.146688E-3
1.364500E-7	3.256317E-3
1.365000E-7	3.376223E-3
1.365500E-7	3.470435E-3
1.366000E-7	3.545805E-3
1.366500E-7	3.624601E-3
1.367000E-7	3.655434E-3
1.367500E-7	3.640017E-3
1.368000E-7	3.598907E-3
1.368500E-7	3.547518E-3
1.369000E-7	3.475574E-3
1.369500E-7	3.388214E-3
1.370000E-7	3.278585E-3
1.370500E-7	3.163817E-3
1.371000E-7	3.006226E-3
1.371500E-7	2.860625E-3
1.372000E-7	2.730441E-3
1.372500E-7	2.653358E-3
1.373000E-7	2.574562E-3
1.373500E-7	2.536878E-3
1.374000E-7	2.530026E-3
1.374500E-7	2.560859E-3
1.375000E-7	2.651645E-3
1.375500E-7	2.766413E-3
1.376000E-7	2.886319E-3
1.376500E-7	3.026781E-3
1.377000E-7	3.143262E-3
1.377500E-7	3.280298E-3
1.378000E-7	3.371084E-3
1.378500E-7	3.441315E-3
1.379000E-7	3.477287E-3
1.379500E-7	3.461871E-3
1.380000E-7	3.410482E-3
1.380500E-7	3.338538E-3
1.381000E-7	3.287150E-3
1.381500E-7	3.204928E-3
1.382000E-7	3.132984E-3
1.382500E-7	3.035346E-3
1.383000E-7	2.937708E-3
1.383500E-7	2.864051E-3
1.384000E-7	2.816088E-3
1.384500E-7	2.807524E-3
1.385000E-7	2.836644E-3
1.385500E-7	2.850347E-3
1.386000E-7	2.889745E-3
1.386500E-7	2.925717E-3
1.387000E-7	2.966828E-3
1.387500E-7	3.023355E-3
1.388000E-7	3.035346E-3
1.388500E-7	3.009652E-3
1.389000E-7	2.946273E-3
1.389500E-7	2.834931E-3
1.390000E-7	2.715024E-3
1.390500E-7	2.584840E-3
1.391000E-7	2.447804E-3
1.391500E-7	2.367295E-3
1.392000E-7	2.363870E-3
1.392500E-7	2.372434E-3
1.393000E-7	2.422110E-3
1.393500E-7	2.531739E-3
1.394000E-7	2.622525E-3
1.394500E-7	2.744144E-3
1.395000E-7	2.846922E-3
1.395500E-7	2.971967E-3
1.396000E-7	3.042198E-3
1.396500E-7	3.124419E-3
1.397000E-7	3.156965E-3
1.397500E-7	3.153540E-3
1.398000E-7	3.156965E-3
1.398500E-7	3.126132E-3
1.399000E-7	3.112429E-3
1.399500E-7	3.129558E-3
1.400000E-7	3.093586E-3
1.400500E-7	3.001087E-3
1.401000E-7	2.978819E-3
1.401500E-7	2.961689E-3
1.402000E-7	2.935995E-3
1.402500E-7	2.906875E-3
1.403000E-7	2.874329E-3
1.403500E-7	2.876042E-3
1.404000E-7	2.845209E-3
1.404500E-7	2.836644E-3
1.405000E-7	2.852060E-3
1.405500E-7	2.845209E-3
1.406000E-7	2.869190E-3
1.406500E-7	2.937708E-3
1.407000E-7	2.995948E-3
1.407500E-7	3.098725E-3
1.408000E-7	3.225483E-3
1.408500E-7	3.340251E-3
1.409000E-7	3.413908E-3
1.409500E-7	3.453306E-3
1.410000E-7	3.473861E-3
1.410500E-7	3.449880E-3
1.411000E-7	3.431037E-3
1.411500E-7	3.408769E-3
1.412000E-7	3.340251E-3
1.412500E-7	3.299140E-3
1.413000E-7	3.244326E-3
1.413500E-7	3.199789E-3
1.414000E-7	3.144975E-3
1.414500E-7	3.129558E-3
1.415000E-7	3.134697E-3
1.415500E-7	3.191224E-3
1.416000E-7	3.227196E-3
1.416500E-7	3.283724E-3
1.417000E-7	3.336825E-3
1.417500E-7	3.391640E-3
1.418000E-7	3.432750E-3
1.418500E-7	3.431037E-3
1.419000E-7	3.448167E-3
1.419500E-7	3.424186E-3
1.420000E-7	3.391640E-3
1.420500E-7	3.391640E-3
1.421000E-7	3.381362E-3
1.421500E-7	3.379649E-3
1.422000E-7	3.386501E-3
1.422500E-7	3.422473E-3
1.423000E-7	3.470435E-3
1.423500E-7	3.499555E-3
1.424000E-7	3.492704E-3
1.424500E-7	3.477287E-3
1.425000E-7	3.419047E-3
1.425500E-7	3.367658E-3
1.426000E-7	3.321409E-3
1.426500E-7	3.215206E-3
1.427000E-7	3.090160E-3
1.427500E-7	2.963402E-3
1.428000E-7	2.850347E-3
1.428500E-7	2.790394E-3
1.429000E-7	2.774978E-3
1.429500E-7	2.786968E-3
1.430000E-7	2.857199E-3
1.430500E-7	2.942847E-3
1.431000E-7	3.047337E-3
1.431500E-7	3.146688E-3
1.432000E-7	3.266594E-3
1.432500E-7	3.359094E-3
1.433000E-7	3.403630E-3
1.433500E-7	3.401917E-3
1.434000E-7	3.379649E-3
1.434500E-7	3.249465E-3
1.435000E-7	3.117568E-3
1.435500E-7	2.953124E-3
1.436000E-7	2.750996E-3
1.436500E-7	2.603683E-3
1.437000E-7	2.422110E-3
1.437500E-7	2.307342E-3
1.438000E-7	2.240537E-3
1.438500E-7	2.233685E-3
1.439000E-7	2.269657E-3
1.439500E-7	2.360444E-3
1.440000E-7	2.485489E-3
1.440500E-7	2.627664E-3
1.441000E-7	2.790394E-3
1.441500E-7	2.965115E-3
1.442000E-7	3.115855E-3
1.442500E-7	3.210067E-3
1.443000E-7	3.316270E-3
1.443500E-7	3.360807E-3
1.444000E-7	3.386501E-3
1.444500E-7	3.425899E-3
1.445000E-7	3.391640E-3
1.445500E-7	3.388214E-3
1.446000E-7	3.386501E-3
1.446500E-7	3.350529E-3
1.447000E-7	3.297427E-3
1.447500E-7	3.273446E-3
1.448000E-7	3.215206E-3
1.448500E-7	3.172382E-3
1.449000E-7	3.136410E-3
1.449500E-7	3.107290E-3
1.450000E-7	3.091873E-3
1.450500E-7	3.097012E-3
1.451000E-7	3.105577E-3
1.451500E-7	3.103864E-3
1.452000E-7	3.103864E-3
1.452500E-7	3.131271E-3
1.453000E-7	3.155253E-3
1.453500E-7	3.162104E-3
1.454000E-7	3.163817E-3
1.454500E-7	3.146688E-3
1.455000E-7	3.115855E-3
1.455500E-7	3.076457E-3
1.456000E-7	3.025068E-3
1.456500E-7	2.989096E-3
1.457000E-7	2.966828E-3
1.457500E-7	2.918865E-3
1.458000E-7	2.855486E-3
1.458500E-7	2.810950E-3
1.459000E-7	2.790394E-3
1.459500E-7	2.769839E-3
1.460000E-7	2.750996E-3
1.460500E-7	2.742432E-3
1.461000E-7	2.776691E-3
1.461500E-7	2.819514E-3
1.462000E-7	2.836644E-3
1.462500E-7	2.891458E-3
1.463000E-7	2.937708E-3
1.463500E-7	2.954837E-3
1.464000E-7	2.968541E-3
1.464500E-7	2.963402E-3
1.465000E-7	2.971967E-3
1.465500E-7	2.951411E-3
1.466000E-7	2.888032E-3
1.466500E-7	2.800672E-3
1.467000E-7	2.689330E-3
1.467500E-7	2.603683E-3
1.468000E-7	2.516322E-3
1.468500E-7	2.475211E-3
1.469000E-7	2.449517E-3
1.469500E-7	2.461508E-3
1.470000E-7	2.509470E-3
1.470500E-7	2.555720E-3
1.471000E-7	2.646506E-3
1.471500E-7	2.745857E-3
1.472000E-7	2.846922E-3
1.472500E-7	2.884606E-3
1.473000E-7	2.882893E-3
1.473500E-7	2.860625E-3
1.474000E-7	2.814375E-3
1.474500E-7	2.783542E-3
1.475000E-7	2.735580E-3
1.475500E-7	2.685904E-3
1.476000E-7	2.649932E-3
1.476500E-7	2.617386E-3
1.477000E-7	2.613960E-3
1.477500E-7	2.646506E-3
1.478000E-7	2.689330E-3
1.478500E-7	2.792107E-3
1.479000E-7	2.882893E-3
1.479500E-7	2.983958E-3
1.480000E-7	3.086735E-3
1.480500E-7	3.196363E-3
1.481000E-7	3.264881E-3
1.481500E-7	3.300853E-3
1.482000E-7	3.311131E-3
1.482500E-7	3.300853E-3
1.483000E-7	3.259742E-3
1.483500E-7	3.232335E-3
1.484000E-7	3.168956E-3
1.484500E-7	3.102151E-3
1.485000E-7	3.050763E-3
1.485500E-7	2.977106E-3
1.486000E-7	2.865764E-3
1.486500E-7	2.783542E-3
1.487000E-7	2.728728E-3
1.487500E-7	2.682478E-3
1.488000E-7	2.607108E-3
1.488500E-7	2.579701E-3
1.489000E-7	2.588266E-3
1.489500E-7	2.584840E-3
1.490000E-7	2.572849E-3
1.490500E-7	2.593405E-3
1.491000E-7	2.608821E-3
1.491500E-7	2.656784E-3
1.492000E-7	2.694469E-3
1.492500E-7	2.752709E-3
1.493000E-7	2.802385E-3
1.493500E-7	2.841783E-3
1.494000E-7	2.860625E-3
1.494500E-7	2.893171E-3
1.495000E-7	2.953124E-3
1.495500E-7	3.004513E-3
1.496000E-7	3.055901E-3
1.496500E-7	3.098725E-3
1.497000E-7	3.139836E-3
1.497500E-7	3.174095E-3
1.498000E-7	3.167243E-3
1.498500E-7	3.172382E-3
1.499000E-7	3.165530E-3
1.499500E-7	3.115855E-3
1.500000E-7	3.066179E-3
1.500500E-7	2.989096E-3
1.501000E-7	2.930856E-3
1.501500E-7	2.872616E-3
1.502000E-7	2.814375E-3
1.502500E-7	2.795533E-3
1.503000E-7	2.781829E-3
1.503500E-7	2.776691E-3
1.504000E-7	2.780116E-3
1.504500E-7	2.846922E-3
1.505000E-7	2.898310E-3
1.505500E-7	2.942847E-3
1.506000E-7	2.946273E-3
1.506500E-7	2.932569E-3
1.507000E-7	2.886319E-3
1.507500E-7	2.846922E-3
1.508000E-7	2.805811E-3
1.508500E-7	2.757848E-3
1.509000E-7	2.713311E-3
1.509500E-7	2.679052E-3
1.510000E-7	2.709885E-3
1.510500E-7	2.725302E-3
1.511000E-7	2.819514E-3
1.511500E-7	2.905162E-3
1.512000E-7	3.025068E-3
1.512500E-7	3.095299E-3
1.513000E-7	3.163817E-3
1.513500E-7	3.204928E-3
1.514000E-7	3.199789E-3
1.514500E-7	3.146688E-3
1.515000E-7	3.042198E-3
1.515500E-7	2.913727E-3
1.516000E-7	2.769839E-3
1.516500E-7	2.646506E-3
1.517000E-7	2.533452E-3
1.517500E-7	2.458082E-3
1.518000E-7	2.432388E-3
1.518500E-7	2.440952E-3
1.519000E-7	2.490628E-3
1.519500E-7	2.586553E-3
1.520000E-7	2.684191E-3
1.520500E-7	2.795533E-3
1.521000E-7	2.888032E-3
1.521500E-7	2.975393E-3
1.522000E-7	3.011365E-3
1.522500E-7	3.007939E-3
1.523000E-7	2.992522E-3
1.523500E-7	2.977106E-3
1.524000E-7	2.978819E-3
1.524500E-7	2.971967E-3
1.525000E-7	2.973680E-3
1.525500E-7	3.019929E-3
1.526000E-7	3.109003E-3
1.526500E-7	3.194650E-3
1.527000E-7	3.290576E-3
1.527500E-7	3.312844E-3
1.528000E-7	3.299140E-3
1.528500E-7	3.258030E-3
1.529000E-7	3.208354E-3
1.529500E-7	3.091873E-3
1.530000E-7	3.009652E-3
1.530500E-7	2.920578E-3
1.531000E-7	2.850347E-3
1.531500E-7	2.807524E-3
1.532000E-7	2.754422E-3
1.532500E-7	2.761274E-3
1.533000E-7	2.800672E-3
1.533500E-7	2.903449E-3
1.534000E-7	3.025068E-3
1.534500E-7	3.155253E-3
1.535000E-7	3.278585E-3
1.535500E-7	3.377936E-3
1.536000E-7	3.424186E-3
1.536500E-7	3.456732E-3
1.537000E-7	3.504694E-3
1.537500E-7	3.501268E-3
1.538000E-7	3.490991E-3
1.538500E-7	3.455019E-3
1.539000E-7	3.427612E-3
1.539500E-7	3.410482E-3
1.540000E-7	3.393353E-3
1.540500E-7	3.412195E-3
1.541000E-7	3.424186E-3
1.541500E-7	3.432750E-3
1.542000E-7	3.422473E-3
1.542500E-7	3.422473E-3
1.543000E-7	3.398491E-3
1.543500E-7	3.365945E-3
1.544000E-7	3.299140E-3
1.544500E-7	3.259742E-3
1.545000E-7	3.218632E-3
1.545500E-7	3.165530E-3
1.546000E-7	3.095299E-3
1.546500E-7	3.006226E-3
1.547000E-7	2.927430E-3
1.547500E-7	2.853773E-3
1.548000E-7	2.810950E-3
1.548500E-7	2.792107E-3
1.549000E-7	2.781829E-3
1.549500E-7	2.781829E-3
1.550000E-7	2.744144E-3
1.550500E-7	2.737293E-3
1.551000E-7	2.728728E-3
1.551500E-7	2.771552E-3
1.552000E-7	2.809237E-3
1.552500E-7	2.867477E-3
1.553000E-7	2.924004E-3
1.553500E-7	2.985670E-3
1.554000E-7	3.023355E-3
1.554500E-7	3.011365E-3
1.555000E-7	3.009652E-3
1.555500E-7	2.958263E-3
1.556000E-7	2.901736E-3
1.556500E-7	2.805811E-3
1.557000E-7	2.696182E-3
1.557500E-7	2.595118E-3
1.558000E-7	2.471785E-3
1.558500E-7	2.357018E-3
1.559000E-7	2.283361E-3
1.559500E-7	2.211417E-3
1.560000E-7	2.199426E-3
1.560500E-7	2.230259E-3
1.561000E-7	2.291926E-3
1.561500E-7	2.365583E-3
1.562000E-7	2.449517E-3
1.562500E-7	2.557433E-3
1.563000E-7	2.675626E-3
1.563500E-7	2.822940E-3
1.564000E-7	2.949699E-3
1.564500E-7	3.071318E-3
1.565000E-7	3.191224E-3
1.565500E-7	3.288863E-3
1.566000E-7	3.372797E-3
1.566500E-7	3.443028E-3
1.567000E-7	3.530389E-3
1.567500E-7	3.592055E-3
1.568000E-7	3.641730E-3
1.568500E-7	3.674276E-3
1.569000E-7	3.689693E-3
1.569500E-7	3.689693E-3
1.570000E-7	3.652008E-3
1.570500E-7	3.604045E-3
1.571000E-7	3.552657E-3
1.571500E-7	3.444741E-3
1.572000E-7	3.319696E-3
1.572500E-7	3.187799E-3
1.573000E-7	3.011365E-3
1.573500E-7	2.879468E-3
1.574000E-7	2.747570E-3
1.574500E-7	2.622525E-3
1.575000E-7	2.502619E-3
1.575500E-7	2.452943E-3
1.576000E-7	2.422110E-3
1.576500E-7	2.411832E-3
1.577000E-7	2.435813E-3
1.577500E-7	2.461508E-3
1.578000E-7	2.526600E-3
1.578500E-7	2.576275E-3
1.579000E-7	2.692756E-3
1.579500E-7	2.781829E-3
1.580000E-7	2.858912E-3
1.580500E-7	2.980532E-3
1.581000E-7	3.035346E-3
1.581500E-7	3.054188E-3
1.582000E-7	3.047337E-3
1.582500E-7	3.028494E-3
1.583000E-7	2.941134E-3
1.583500E-7	2.874329E-3
1.584000E-7	2.778404E-3
1.584500E-7	2.667062E-3
1.585000E-7	2.567711E-3
1.585500E-7	2.458082E-3
1.586000E-7	2.367295E-3
1.586500E-7	2.314194E-3
1.587000E-7	2.333036E-3
1.587500E-7	2.346740E-3
1.588000E-7	2.374147E-3
1.588500E-7	2.442665E-3
1.589000E-7	2.497480E-3
1.589500E-7	2.567711E-3
1.590000E-7	2.607108E-3
1.590500E-7	2.655071E-3
1.591000E-7	2.684191E-3
1.591500E-7	2.703034E-3
1.592000E-7	2.694469E-3
1.592500E-7	2.670488E-3
1.593000E-7	2.613960E-3
1.593500E-7	2.577988E-3
1.594000E-7	2.506044E-3
1.594500E-7	2.461508E-3
1.595000E-7	2.403267E-3
1.595500E-7	2.416971E-3
1.596000E-7	2.451230E-3
1.596500E-7	2.497480E-3
1.597000E-7	2.595118E-3
1.597500E-7	2.684191E-3
1.598000E-7	2.783542E-3
1.598500E-7	2.917152E-3
1.599000E-7	3.028494E-3
1.599500E-7	3.131271E-3
1.600000E-7	3.247752E-3
1.600500E-7	3.297427E-3
1.601000E-7	3.331686E-3
1.601500E-7	3.314557E-3
1.602000E-7	3.211780E-3
1.602500E-7	3.059327E-3
1.603000E-7	2.865764E-3
1.603500E-7	2.658497E-3
1.604000E-7	2.449517E-3
1.604500E-7	2.264518E-3
1.605000E-7	2.072668E-3
1.605500E-7	1.935632E-3
1.606000E-7	1.837994E-3
1.606500E-7	1.812300E-3
1.607000E-7	1.832855E-3
1.607500E-7	1.932206E-3
1.608000E-7	2.057252E-3
1.608500E-7	2.214843E-3
1.609000E-7	2.410119E-3
1.609500E-7	2.564285E-3
1.610000E-7	2.696182E-3
1.610500E-7	2.841783E-3
1.611000E-7	2.917152E-3
1.611500E-7	2.971967E-3
1.612000E-7	2.989096E-3
1.612500E-7	3.001087E-3
1.613000E-7	2.982245E-3
1.613500E-7	2.918865E-3
1.614000E-7	2.833218E-3
1.614500E-7	2.750996E-3
1.615000E-7	2.677339E-3
1.615500E-7	2.605396E-3
1.616000E-7	2.531739E-3
1.616500E-7	2.478637E-3
1.617000E-7	2.447804E-3
1.617500E-7	2.435813E-3
1.618000E-7	2.463221E-3
1.618500E-7	2.480350E-3
1.619000E-7	2.502619E-3
1.619500E-7	2.550581E-3
1.620000E-7	2.588266E-3
1.620500E-7	2.627664E-3
1.621000E-7	2.668775E-3
1.621500E-7	2.699608E-3
1.622000E-7	2.747570E-3
1.622500E-7	2.790394E-3
1.623000E-7	2.812663E-3
1.623500E-7	2.882893E-3
1.624000E-7	2.891458E-3
1.624500E-7	2.913727E-3
1.625000E-7	2.954837E-3
1.625500E-7	2.982245E-3
1.626000E-7	2.982245E-3
1.626500E-7	2.994235E-3
1.627000E-7	2.990809E-3
1.627500E-7	2.961689E-3
1.628000E-7	2.942847E-3
1.628500E-7	2.901736E-3
1.629000E-7	2.865764E-3
1.629500E-7	2.817801E-3
1.630000E-7	2.778404E-3
1.630500E-7	2.732154E-3
1.631000E-7	2.682478E-3
1.631500E-7	2.574562E-3
1.632000E-7	2.468360E-3
1.632500E-7	2.403267E-3
1.633000E-7	2.358731E-3
1.633500E-7	2.302203E-3
1.634000E-7	2.254241E-3
1.634500E-7	2.245676E-3
1.635000E-7	2.261093E-3
1.635500E-7	2.309055E-3
1.636000E-7	2.341601E-3
1.636500E-7	2.384425E-3
1.637000E-7	2.425536E-3
1.637500E-7	2.435813E-3
1.638000E-7	2.442665E-3
1.638500E-7	2.427249E-3
1.639000E-7	2.425536E-3
1.639500E-7	2.411832E-3
1.640000E-7	2.437526E-3
1.640500E-7	2.458082E-3
1.641000E-7	2.494054E-3
1.641500E-7	2.542016E-3
1.642000E-7	2.631090E-3
1.642500E-7	2.725302E-3
1.643000E-7	2.819514E-3
1.643500E-7	2.884606E-3
1.644000E-7	2.903449E-3
1.644500E-7	2.912014E-3
1.645000E-7	2.900023E-3
1.645500E-7	2.864051E-3
1.646000E-7	2.822940E-3
1.646500E-7	2.773265E-3
1.647000E-7	2.665349E-3
1.647500E-7	2.624238E-3
1.648000E-7	2.593405E-3
1.648500E-7	2.572849E-3
1.649000E-7	2.607108E-3
1.649500E-7	2.627664E-3
1.650000E-7	2.694469E-3
1.650500E-7	2.785255E-3
1.651000E-7	2.922291E-3
1.651500E-7	3.093586E-3
1.652000E-7	3.251178E-3
1.652500E-7	3.386501E-3
1.653000E-7	3.540666E-3
1.653500E-7	3.682841E-3
1.654000E-7	3.797609E-3
1.654500E-7	3.907238E-3
1.655000E-7	4.006589E-3
1.655500E-7	4.020292E-3
1.656000E-7	3.980894E-3
1.656500E-7	3.974043E-3
1.657000E-7	3.917515E-3
1.657500E-7	3.821590E-3
1.658000E-7	3.725665E-3
1.658500E-7	3.604045E-3
1.659000E-7	3.502981E-3
1.659500E-7	3.386501E-3
1.660000E-7	3.278585E-3
1.660500E-7	3.222058E-3
1.661000E-7	3.218632E-3
1.661500E-7	3.204928E-3
1.662000E-7	3.182660E-3
1.662500E-7	3.160391E-3
1.663000E-7	3.162104E-3
1.663500E-7	3.148401E-3
1.664000E-7	3.110716E-3
1.664500E-7	3.097012E-3
1.665000E-7	3.069605E-3
1.665500E-7	3.076457E-3
1.666000E-7	3.030207E-3
1.666500E-7	3.004513E-3
1.667000E-7	2.961689E-3
1.667500E-7	2.905162E-3
1.668000E-7	2.845209E-3
1.668500E-7	2.795533E-3
1.669000E-7	2.771552E-3
1.669500E-7	2.704747E-3
1.670000E-7	2.629377E-3
1.670500E-7	2.603683E-3
1.671000E-7	2.608821E-3
1.671500E-7	2.631090E-3
1.672000E-7	2.691043E-3
1.672500E-7	2.769839E-3
1.673000E-7	2.860625E-3
1.673500E-7	2.971967E-3
1.674000E-7	3.067892E-3
1.674500E-7	3.153540E-3
1.675000E-7	3.232335E-3
1.675500E-7	3.247752E-3
1.676000E-7	3.246039E-3
1.676500E-7	3.223771E-3
1.677000E-7	3.146688E-3
1.677500E-7	3.033633E-3
1.678000E-7	2.912014E-3
1.678500E-7	2.788681E-3
1.679000E-7	2.636229E-3
1.679500E-7	2.519748E-3
1.680000E-7	2.435813E-3
1.680500E-7	2.375860E-3
1.681000E-7	2.365583E-3
1.681500E-7	2.380999E-3
1.682000E-7	2.398129E-3
1.682500E-7	2.432388E-3
1.683000E-7	2.452943E-3
1.683500E-7	2.439239E-3
1.684000E-7	2.449517E-3
1.684500E-7	2.470072E-3
1.685000E-7	2.521461E-3
1.685500E-7	2.577988E-3
1.686000E-7	2.661923E-3
1.686500E-7	2.761274E-3
1.687000E-7	2.852060E-3
1.687500E-7	2.918865E-3
1.688000E-7	2.963402E-3
1.688500E-7	2.970254E-3
1.689000E-7	2.956550E-3
1.689500E-7	2.937708E-3
1.690000E-7	2.908588E-3
1.690500E-7	2.846922E-3
1.691000E-7	2.788681E-3
1.691500E-7	2.675626E-3
1.692000E-7	2.577988E-3
1.692500E-7	2.458082E-3
1.693000E-7	2.375860E-3
1.693500E-7	2.307342E-3
1.694000E-7	2.235398E-3
1.694500E-7	2.206278E-3
1.695000E-7	2.214843E-3
1.695500E-7	2.238824E-3
1.696000E-7	2.252528E-3
1.696500E-7	2.300490E-3
1.697000E-7	2.303916E-3
1.697500E-7	2.302203E-3
1.698000E-7	2.281648E-3
1.698500E-7	2.274796E-3
1.699000E-7	2.243963E-3
1.699500E-7	2.213130E-3
1.700000E-7	2.175445E-3
1.700500E-7	2.161741E-3
1.701000E-7	2.142899E-3
1.701500E-7	2.149751E-3
1.702000E-7	2.132621E-3
1.702500E-7	2.130908E-3
1.703000E-7	2.125770E-3
1.703500E-7	2.146325E-3
1.704000E-7	2.175445E-3
1.704500E-7	2.172019E-3
1.705000E-7	2.163454E-3
1.705500E-7	2.151464E-3
1.706000E-7	2.156603E-3
1.706500E-7	2.142899E-3
1.707000E-7	2.096649E-3
1.707500E-7	2.055539E-3
1.708000E-7	1.990446E-3
1.708500E-7	1.923641E-3
1.709000E-7	1.892808E-3
1.709500E-7	1.891095E-3
1.710000E-7	1.908225E-3
1.710500E-7	1.925354E-3
1.711000E-7	1.987021E-3
1.711500E-7	2.060677E-3
1.712000E-7	2.151464E-3
1.712500E-7	2.257667E-3
1.713000E-7	2.379286E-3
1.713500E-7	2.488915E-3
1.714000E-7	2.619099E-3
1.714500E-7	2.749283E-3
1.715000E-7	2.819514E-3
1.715500E-7	2.857199E-3
1.716000E-7	2.900023E-3
1.716500E-7	2.888032E-3
1.717000E-7	2.857199E-3
1.717500E-7	2.771552E-3
1.718000E-7	2.663636E-3
1.718500E-7	2.557433E-3
1.719000E-7	2.458082E-3
1.719500E-7	2.394703E-3
1.720000E-7	2.341601E-3
1.720500E-7	2.362157E-3
1.721000E-7	2.369008E-3
1.721500E-7	2.408406E-3
1.722000E-7	2.488915E-3
1.722500E-7	2.593405E-3
1.723000E-7	2.699608E-3
1.723500E-7	2.776691E-3
1.724000E-7	2.840070E-3
1.724500E-7	2.910301E-3
1.725000E-7	2.968541E-3
1.725500E-7	3.035346E-3
1.726000E-7	3.061040E-3
1.726500E-7	3.057614E-3
1.727000E-7	3.028494E-3
1.727500E-7	2.987383E-3
1.728000E-7	2.927430E-3
1.728500E-7	2.886319E-3
1.729000E-7	2.855486E-3
1.729500E-7	2.805811E-3
1.730000E-7	2.744144E-3
1.730500E-7	2.670488E-3
1.731000E-7	2.641367E-3
1.731500E-7	2.631090E-3
1.732000E-7	2.619099E-3
1.732500E-7	2.651645E-3
1.733000E-7	2.706460E-3
1.733500E-7	2.761274E-3
1.734000E-7	2.814375E-3
1.734500E-7	2.917152E-3
1.735000E-7	3.011365E-3
1.735500E-7	3.074744E-3
1.736000E-7	3.150114E-3
1.736500E-7	3.191224E-3
1.737000E-7	3.198076E-3
1.737500E-7	3.177521E-3
1.738000E-7	3.136410E-3
1.738500E-7	3.064466E-3
1.739000E-7	2.985670E-3
1.739500E-7	2.882893E-3
1.740000E-7	2.798959E-3
1.740500E-7	2.750996E-3
1.741000E-7	2.757848E-3
1.741500E-7	2.759561E-3
1.742000E-7	2.790394E-3
1.742500E-7	2.840070E-3
1.743000E-7	2.879468E-3
1.743500E-7	2.915440E-3
1.744000E-7	2.951411E-3
1.744500E-7	2.963402E-3
1.745000E-7	2.961689E-3
1.745500E-7	2.922291E-3
1.746000E-7	2.836644E-3
1.746500E-7	2.737293E-3
1.747000E-7	2.636229E-3
1.747500E-7	2.518035E-3
1.748000E-7	2.384425E-3
1.748500E-7	2.271370E-3
1.749000E-7	2.177158E-3
1.749500E-7	2.117205E-3
1.750000E-7	2.070955E-3
1.750500E-7	2.046974E-3
1.751000E-7	2.069242E-3
1.751500E-7	2.086372E-3
1.752000E-7	2.161741E-3
1.752500E-7	2.264518E-3
1.753000E-7	2.392990E-3
1.753500E-7	2.535165E-3
1.754000E-7	2.685904E-3
1.754500E-7	2.836644E-3
1.755000E-7	2.968541E-3
1.755500E-7	3.091873E-3
1.756000E-7	3.177521E-3
1.756500E-7	3.259742E-3
1.757000E-7	3.299140E-3
1.757500E-7	3.302566E-3
1.758000E-7	3.282011E-3
1.758500E-7	3.237474E-3
1.759000E-7	3.216919E-3
1.759500E-7	3.165530E-3
1.760000E-7	3.117568E-3
1.760500E-7	3.090160E-3
1.761000E-7	3.066179E-3
1.761500E-7	3.066179E-3
1.762000E-7	3.043911E-3
1.762500E-7	3.031920E-3
1.763000E-7	3.028494E-3
1.763500E-7	3.018217E-3
1.764000E-7	2.963402E-3
1.764500E-7	2.925717E-3
1.765000E-7	2.858912E-3
1.765500E-7	2.781829E-3
1.766000E-7	2.711598E-3
1.766500E-7	2.644793E-3
1.767000E-7	2.586553E-3
1.767500E-7	2.533452E-3
1.768000E-7	2.511183E-3
1.768500E-7	2.514609E-3
1.769000E-7	2.547155E-3
1.769500E-7	2.598544E-3
1.770000E-7	2.711598E-3
1.770500E-7	2.824653E-3
1.771000E-7	2.924004E-3
1.771500E-7	2.999374E-3
1.772000E-7	3.054188E-3
1.772500E-7	3.115855E-3
1.773000E-7	3.146688E-3
1.773500E-7	3.158678E-3
1.774000E-7	3.129558E-3
1.774500E-7	3.136410E-3
1.775000E-7	3.117568E-3
1.775500E-7	3.098725E-3
1.776000E-7	3.086735E-3
1.776500E-7	3.078170E-3
1.777000E-7	3.078170E-3
1.777500E-7	3.124419E-3
1.778000E-7	3.180947E-3
1.778500E-7	3.182660E-3
1.779000E-7	3.186086E-3
1.779500E-7	3.206641E-3
1.780000E-7	3.230622E-3
1.780500E-7	3.215206E-3
1.781000E-7	3.182660E-3
1.781500E-7	3.136410E-3
1.782000E-7	3.083309E-3
1.782500E-7	3.023355E-3
1.783000E-7	2.975393E-3
1.783500E-7	2.937708E-3
1.784000E-7	2.906875E-3
1.784500E-7	2.891458E-3
1.785000E-7	2.864051E-3
1.785500E-7	2.889745E-3
1.786000E-7	2.891458E-3
1.786500E-7	2.925717E-3
1.787000E-7	2.987383E-3
1.787500E-7	3.026781E-3
1.788000E-7	3.074744E-3
1.788500E-7	3.126132E-3
1.789000E-7	3.160391E-3
1.789500E-7	3.138123E-3
1.790000E-7	3.093586E-3
1.790500E-7	3.042198E-3
1.791000E-7	2.944560E-3
1.791500E-7	2.819514E-3
1.792000E-7	2.757848E-3
1.792500E-7	2.682478E-3
1.793000E-7	2.619099E-3
1.793500E-7	2.552294E-3
1.794000E-7	2.511183E-3
1.794500E-7	2.528313E-3
1.795000E-7	2.552294E-3
1.795500E-7	2.584840E-3
1.796000E-7	2.613960E-3
1.796500E-7	2.656784E-3
1.797000E-7	2.670488E-3
1.797500E-7	2.658497E-3
1.798000E-7	2.667062E-3
1.798500E-7	2.708173E-3
1.799000E-7	2.728728E-3
1.799500E-7	2.701321E-3
1.800000E-7	2.735580E-3
1.800500E-7	2.769839E-3
1.801000E-7	2.826366E-3
1.801500E-7	2.886319E-3
1.802000E-7	2.924004E-3
1.802500E-7	2.944560E-3
1.803000E-7	2.953124E-3
1.803500E-7	2.949699E-3
1.804000E-7	2.915440E-3
1.804500E-7	2.869190E-3
1.805000E-7	2.843496E-3
1.805500E-7	2.783542E-3
1.806000E-7	2.708173E-3
1.806500E-7	2.648219E-3
1.807000E-7	2.589979E-3
1.807500E-7	2.543729E-3
1.808000E-7	2.521461E-3
1.808500E-7	2.526600E-3
1.809000E-7	2.516322E-3
1.809500E-7	2.588266E-3
1.810000E-7	2.682478E-3
1.810500E-7	2.750996E-3
1.811000E-7	2.838357E-3
1.811500E-7	2.886319E-3
1.812000E-7	2.935995E-3
1.812500E-7	2.932569E-3
1.813000E-7	2.922291E-3
1.813500E-7	2.879468E-3
1.814000E-7	2.817801E-3
1.814500E-7	2.718450E-3
1.815000E-7	2.607108E-3
1.815500E-7	2.524887E-3
1.816000E-7	2.454656E-3
1.816500E-7	2.430675E-3
1.817000E-7	2.423823E-3
1.817500E-7	2.430675E-3
1.818000E-7	2.506044E-3
1.818500E-7	2.608821E-3
1.819000E-7	2.740719E-3
1.819500E-7	2.876042E-3
1.820000E-7	2.985670E-3
1.820500E-7	3.081596E-3
1.821000E-7	3.151827E-3
1.821500E-7	3.155253E-3
1.822000E-7	3.127845E-3
1.822500E-7	3.069605E-3
1.823000E-7	2.995948E-3
1.823500E-7	2.908588E-3
1.824000E-7	2.858912E-3
1.824500E-7	2.792107E-3
1.825000E-7	2.752709E-3
1.825500E-7	2.756135E-3
1.826000E-7	2.766413E-3
1.826500E-7	2.795533E-3
1.827000E-7	2.807524E-3
1.827500E-7	2.804098E-3
1.828000E-7	2.792107E-3
1.828500E-7	2.785255E-3
1.829000E-7	2.778404E-3
1.829500E-7	2.742432E-3
1.830000E-7	2.723589E-3
1.830500E-7	2.675626E-3
1.831000E-7	2.663636E-3
1.831500E-7	2.655071E-3
1.832000E-7	2.673914E-3
1.832500E-7	2.672201E-3
1.833000E-7	2.723589E-3
1.833500E-7	2.773265E-3
1.834000E-7	2.793820E-3
1.834500E-7	2.810950E-3
1.835000E-7	2.762987E-3
1.835500E-7	2.696182E-3
1.836000E-7	2.631090E-3
1.836500E-7	2.588266E-3
1.837000E-7	2.545442E-3
1.837500E-7	2.569424E-3
1.838000E-7	2.565998E-3
1.838500E-7	2.598544E-3
1.839000E-7	2.619099E-3
1.839500E-7	2.661923E-3
1.840000E-7	2.708173E-3
1.840500E-7	2.750996E-3
1.841000E-7	2.793820E-3
1.841500E-7	2.798959E-3
1.842000E-7	2.773265E-3
1.842500E-7	2.742432E-3
1.843000E-7	2.706460E-3
1.843500E-7	2.661923E-3
1.844000E-7	2.634516E-3
1.844500E-7	2.591692E-3
1.845000E-7	2.550581E-3
1.845500E-7	2.516322E-3
1.846000E-7	2.506044E-3
1.846500E-7	2.494054E-3
1.847000E-7	2.518035E-3
1.847500E-7	2.516322E-3
1.848000E-7	2.502619E-3
1.848500E-7	2.471785E-3
1.849000E-7	2.435813E-3
1.849500E-7	2.410119E-3
1.850000E-7	2.350166E-3
1.850500E-7	2.326185E-3
1.851000E-7	2.358731E-3
1.851500E-7	2.404980E-3
1.852000E-7	2.432388E-3
1.852500E-7	2.507757E-3
1.853000E-7	2.555720E-3
1.853500E-7	2.632803E-3
1.854000E-7	2.721876E-3
1.854500E-7	2.840070E-3
1.855000E-7	2.973680E-3
1.855500E-7	3.095299E-3
1.856000E-7	3.187799E-3
1.856500E-7	3.288863E-3
1.857000E-7	3.319696E-3
1.857500E-7	3.319696E-3
1.858000E-7	3.323122E-3
1.858500E-7	3.312844E-3
1.859000E-7	3.282011E-3
1.859500E-7	3.232335E-3
1.860000E-7	3.204928E-3
1.860500E-7	3.151827E-3
1.861000E-7	3.109003E-3
1.861500E-7	3.074744E-3
1.862000E-7	3.035346E-3
1.862500E-7	3.007939E-3
1.863000E-7	2.990809E-3
1.863500E-7	3.009652E-3
1.864000E-7	3.026781E-3
1.864500E-7	3.057614E-3
1.865000E-7	3.076457E-3
1.865500E-7	3.110716E-3
1.866000E-7	3.109003E-3
1.866500E-7	3.097012E-3
1.867000E-7	3.047337E-3
1.867500E-7	2.995948E-3
1.868000E-7	2.922291E-3
1.868500E-7	2.833218E-3
1.869000E-7	2.715024E-3
1.869500E-7	2.629377E-3
1.870000E-7	2.521461E-3
1.870500E-7	2.471785E-3
1.871000E-7	2.440952E-3
1.871500E-7	2.418684E-3
1.872000E-7	2.447804E-3
1.872500E-7	2.463221E-3
1.873000E-7	2.511183E-3
1.873500E-7	2.572849E-3
1.874000E-7	2.655071E-3
1.874500E-7	2.733867E-3
1.875000E-7	2.814375E-3
1.875500E-7	2.888032E-3
1.876000E-7	2.937708E-3
1.876500E-7	2.985670E-3
1.877000E-7	3.021642E-3
1.877500E-7	3.026781E-3
1.878000E-7	3.014791E-3
1.878500E-7	2.992522E-3
1.879000E-7	2.932569E-3
1.879500E-7	2.867477E-3
1.880000E-7	2.795533E-3
1.880500E-7	2.749283E-3
1.881000E-7	2.737293E-3
1.881500E-7	2.752709E-3
1.882000E-7	2.769839E-3
1.882500E-7	2.822940E-3
1.883000E-7	2.901736E-3
1.883500E-7	2.992522E-3
1.884000E-7	3.093586E-3
1.884500E-7	3.206641E-3
1.885000E-7	3.297427E-3
1.885500E-7	3.353955E-3
1.886000E-7	3.335112E-3
1.886500E-7	3.305992E-3
1.887000E-7	3.213493E-3
1.887500E-7	3.079883E-3
1.888000E-7	2.932569E-3
1.888500E-7	2.798959E-3
1.889000E-7	2.687617E-3
1.889500E-7	2.591692E-3
1.890000E-7	2.511183E-3
1.890500E-7	2.437526E-3
1.891000E-7	2.413545E-3
1.891500E-7	2.384425E-3
1.892000E-7	2.375860E-3
1.892500E-7	2.357018E-3
1.893000E-7	2.375860E-3
1.893500E-7	2.415258E-3
1.894000E-7	2.418684E-3
1.894500E-7	2.449517E-3
1.895000E-7	2.461508E-3
1.895500E-7	2.464934E-3
1.896000E-7	2.444378E-3
1.896500E-7	2.470072E-3
1.897000E-7	2.487202E-3
1.897500E-7	2.507757E-3
1.898000E-7	2.531739E-3
1.898500E-7	2.586553E-3
1.899000E-7	2.622525E-3
1.899500E-7	2.682478E-3
1.900000E-7	2.744144E-3
1.900500E-7	2.843496E-3
1.901000E-7	2.929143E-3
1.901500E-7	2.978819E-3
1.902000E-7	3.105577E-3
1.902500E-7	3.196363E-3
1.903000E-7	3.300853E-3
1.903500E-7	3.420760E-3
1.904000E-7	3.502981E-3
1.904500E-7	3.550944E-3
1.905000E-7	3.598907E-3
1.905500E-7	3.633166E-3
1.906000E-7	3.619462E-3
1.906500E-7	3.583490E-3
1.907000E-7	3.612610E-3
1.907500E-7	3.607471E-3
1.908000E-7	3.569786E-3
1.908500E-7	3.520111E-3
1.909000E-7	3.424186E-3
1.909500E-7	3.329973E-3
1.910000E-7	3.239187E-3
1.910500E-7	3.187799E-3
1.911000E-7	3.127845E-3
1.911500E-7	3.081596E-3
1.912000E-7	3.052476E-3
1.912500E-7	3.016504E-3
1.913000E-7	2.971967E-3
1.913500E-7	2.953124E-3
1.914000E-7	2.913727E-3
1.914500E-7	2.894884E-3
1.915000E-7	2.913727E-3
1.915500E-7	2.937708E-3
1.916000E-7	2.927430E-3
1.916500E-7	2.942847E-3
1.917000E-7	2.932569E-3
1.917500E-7	2.901736E-3
1.918000E-7	2.906875E-3
1.918500E-7	2.882893E-3
1.919000E-7	2.884606E-3
1.919500E-7	2.882893E-3
1.920000E-7	2.886319E-3
1.920500E-7	2.850347E-3
1.921000E-7	2.836644E-3
1.921500E-7	2.792107E-3
1.922000E-7	2.759561E-3
1.922500E-7	2.730441E-3
1.923000E-7	2.661923E-3
1.923500E-7	2.613960E-3
1.924000E-7	2.557433E-3
1.924500E-7	2.545442E-3
1.925000E-7	2.542016E-3
1.925500E-7	2.511183E-3
1.926000E-7	2.506044E-3
1.926500E-7	2.535165E-3
1.927000E-7	2.548868E-3
1.927500E-7	2.557433E-3
1.928000E-7	2.560859E-3
1.928500E-7	2.562572E-3
1.929000E-7	2.550581E-3
1.929500E-7	2.528313E-3
1.930000E-7	2.504331E-3
1.930500E-7	2.494054E-3
1.931000E-7	2.432388E-3
1.931500E-7	2.367295E-3
1.932000E-7	2.321046E-3
1.932500E-7	2.267944E-3
1.933000E-7	2.269657E-3
1.933500E-7	2.307342E-3
1.934000E-7	2.322759E-3
1.934500E-7	2.365583E-3
1.935000E-7	2.451230E-3
1.935500E-7	2.514609E-3
1.936000E-7	2.589979E-3
1.936500E-7	2.667062E-3
1.937000E-7	2.711598E-3
1.937500E-7	2.720163E-3
1.938000E-7	2.713311E-3
1.938500E-7	2.685904E-3
1.939000E-7	2.658497E-3
1.939500E-7	2.649932E-3
1.940000E-7	2.634516E-3
1.940500E-7	2.646506E-3
1.941000E-7	2.639655E-3
1.941500E-7	2.694469E-3
1.942000E-7	2.744144E-3
1.942500E-7	2.826366E-3
1.943000E-7	2.900023E-3
1.943500E-7	2.965115E-3
1.944000E-7	2.999374E-3
1.944500E-7	3.052476E-3
1.945000E-7	3.066179E-3
1.945500E-7	3.050763E-3
1.946000E-7	2.985670E-3
1.946500E-7	2.870903E-3
1.947000E-7	2.790394E-3
1.947500E-7	2.673914E-3
1.948000E-7	2.559146E-3
1.948500E-7	2.447804E-3
1.949000E-7	2.380999E-3
1.949500E-7	2.326185E-3
1.950000E-7	2.271370E-3
1.950500E-7	2.302203E-3
1.951000E-7	2.360444E-3
1.951500E-7	2.430675E-3
1.952000E-7	2.523174E-3
1.952500E-7	2.636229E-3
1.953000E-7	2.691043E-3
1.953500E-7	2.776691E-3
1.954000E-7	2.840070E-3
1.954500E-7	2.876042E-3
1.955000E-7	2.874329E-3
1.955500E-7	2.824653E-3
1.956000E-7	2.727015E-3
1.956500E-7	2.632803E-3
1.957000E-7	2.528313E-3
1.957500E-7	2.380999E-3
1.958000E-7	2.273083E-3
1.958500E-7	2.192575E-3
1.959000E-7	2.129195E-3
1.959500E-7	2.089798E-3
1.960000E-7	2.101788E-3
1.960500E-7	2.149751E-3
1.961000E-7	2.233685E-3
1.961500E-7	2.321046E-3
1.962000E-7	2.411832E-3
1.962500E-7	2.482063E-3
1.963000E-7	2.555720E-3
1.963500E-7	2.607108E-3
1.964000E-7	2.634516E-3
1.964500E-7	2.653358E-3
1.965000E-7	2.649932E-3
1.965500E-7	2.624238E-3
1.966000E-7	2.557433E-3
1.966500E-7	2.514609E-3
1.967000E-7	2.468360E-3
1.967500E-7	2.446091E-3
1.968000E-7	2.478637E-3
1.968500E-7	2.535165E-3
1.969000E-7	2.612247E-3
1.969500E-7	2.703034E-3
1.970000E-7	2.766413E-3
1.970500E-7	2.845209E-3
1.971000E-7	2.908588E-3
1.971500E-7	2.966828E-3
1.972000E-7	2.983958E-3
1.972500E-7	3.021642E-3
1.973000E-7	3.037059E-3
1.973500E-7	3.011365E-3
1.974000E-7	2.992522E-3
1.974500E-7	2.961689E-3
1.975000E-7	2.932569E-3
1.975500E-7	2.862338E-3
1.976000E-7	2.848634E-3
1.976500E-7	2.831505E-3
1.977000E-7	2.807524E-3
1.977500E-7	2.781829E-3
1.978000E-7	2.709885E-3
1.978500E-7	2.694469E-3
1.979000E-7	2.653358E-3
1.979500E-7	2.603683E-3
1.980000E-7	2.579701E-3
1.980500E-7	2.526600E-3
1.981000E-7	2.518035E-3
1.981500E-7	2.533452E-3
1.982000E-7	2.565998E-3
1.982500E-7	2.620812E-3
1.983000E-7	2.704747E-3
1.983500E-7	2.790394E-3
1.984000E-7	2.898310E-3
1.984500E-7	2.990809E-3
1.985000E-7	3.055901E-3
1.985500E-7	3.112429E-3
1.986000E-7	3.175808E-3
1.986500E-7	3.211780E-3
1.987000E-7	3.198076E-3
1.987500E-7	3.196363E-3
1.988000E-7	3.162104E-3
1.988500E-7	3.136410E-3
1.989000E-7	3.073031E-3
1.989500E-7	2.987383E-3
1.990000E-7	2.915440E-3
1.990500E-7	2.855486E-3
1.991000E-7	2.792107E-3
1.991500E-7	2.732154E-3
1.992000E-7	2.699608E-3
1.992500E-7	2.656784E-3
1.993000E-7	2.675626E-3
1.993500E-7	2.703034E-3
1.994000E-7	2.742432E-3
1.994500E-7	2.771552E-3
1.995000E-7	2.816088E-3
1.995500E-7	2.829792E-3
1.996000E-7	2.857199E-3
1.996500E-7	2.864051E-3
1.997000E-7	2.867477E-3
1.997500E-7	2.864051E-3
1.998000E-7	2.841783E-3
1.998500E-7	2.824653E-3
1.999000E-7	2.821227E-3
1.999500E-7	2.841783E-3
2.000000E-7	2.828079E-3
2.000500E-7	2.836644E-3
