Study Name	VanadiumIrradiated_V3plus
Sample Name	2022-01-04
Run Name	unirradiated_2
Operator	Angus
Date	1/4/2022
Time	13:44
Sign	FIX
Grating Spacing	06.40um
Channel	3
Number Traces	10000
Files in Batch	1
Batch Number	1
dt	50.000001E-12
time stamp (ms)	13:45:15
	
Time	Amplitude
0.000000E+0	-7.434218E-4
5.000000E-11	-7.211535E-4
1.000000E-10	-6.440707E-4
1.500000E-10	-6.012470E-4
2.000000E-10	-5.652750E-4
2.500000E-10	-5.224512E-4
3.000000E-10	-4.744886E-4
3.500000E-10	-4.316649E-4
4.000000E-10	-3.922670E-4
4.500000E-10	-3.511562E-4
5.000000E-10	-2.980548E-4
5.500000E-10	-2.723605E-4
6.000000E-10	-2.603699E-4
6.500000E-10	-2.500922E-4
7.000000E-10	-2.124073E-4
7.500000E-10	-2.278238E-4
8.000000E-10	-2.261109E-4
8.500000E-10	-2.398145E-4
9.000000E-10	-1.918519E-4
9.500000E-10	-1.815742E-4
1.000000E-9	-1.850001E-4
1.050000E-9	-1.712965E-4
1.100000E-9	-1.524540E-4
1.150000E-9	-1.815742E-4
1.200000E-9	-2.363886E-4
1.250000E-9	-2.655087E-4
1.300000E-9	-2.946289E-4
1.350000E-9	-3.425915E-4
1.400000E-9	-3.922670E-4
1.450000E-9	-4.299519E-4
1.500000E-9	-5.121735E-4
1.550000E-9	-5.584232E-4
1.600000E-9	-5.995340E-4
1.650000E-9	-6.697650E-4
1.700000E-9	-7.245794E-4
1.750000E-9	-7.348571E-4
1.800000E-9	-7.725420E-4
1.850000E-9	-7.639772E-4
1.900000E-9	-7.160146E-4
1.950000E-9	-6.492096E-4
2.000000E-9	-5.841175E-4
2.050000E-9	-5.138865E-4
2.100000E-9	-4.333778E-4
2.150000E-9	-3.888411E-4
2.200000E-9	-3.460174E-4
2.250000E-9	-3.562951E-4
2.300000E-9	-3.614339E-4
2.350000E-9	-3.939800E-4
2.400000E-9	-4.179613E-4
2.450000E-9	-4.522203E-4
2.500000E-9	-4.796275E-4
2.550000E-9	-5.155994E-4
2.600000E-9	-5.275901E-4
2.650000E-9	-5.532844E-4
2.700000E-9	-5.584232E-4
2.750000E-9	-5.635621E-4
2.800000E-9	-5.310160E-4
2.850000E-9	-5.207383E-4
2.900000E-9	-5.001829E-4
2.950000E-9	-5.155994E-4
3.000000E-9	-5.567103E-4
3.050000E-9	-5.806916E-4
3.100000E-9	-6.029599E-4
3.150000E-9	-6.269412E-4
3.200000E-9	-6.389319E-4
3.250000E-9	-6.320801E-4
3.300000E-9	-6.303671E-4
3.350000E-9	-6.252283E-4
3.400000E-9	-6.149506E-4
3.450000E-9	-5.909693E-4
3.500000E-9	-6.029599E-4
3.550000E-9	-5.824045E-4
3.600000E-9	-5.909693E-4
3.650000E-9	-6.218024E-4
3.700000E-9	-6.577743E-4
3.750000E-9	-7.365700E-4
3.800000E-9	-8.530506E-4
3.850000E-9	-9.780960E-4
3.900000E-9	-1.118558E-3
3.950000E-9	-1.259020E-3
4.000000E-9	-1.354945E-3
4.050000E-9	-1.449157E-3
4.100000E-9	-1.485129E-3
4.150000E-9	-1.495407E-3
4.200000E-9	-1.464574E-3
4.250000E-9	-1.361797E-3
4.300000E-9	-1.231613E-3
4.350000E-9	-1.079160E-3
4.400000E-9	-9.472629E-4
4.450000E-9	-7.571254E-4
4.500000E-9	-6.012470E-4
4.550000E-9	-4.676368E-4
4.600000E-9	-3.956929E-4
4.650000E-9	-3.614339E-4
4.700000E-9	-3.956929E-4
4.750000E-9	-4.762016E-4
4.800000E-9	-5.618491E-4
4.850000E-9	-7.005981E-4
4.900000E-9	-8.444859E-4
4.950000E-9	-9.661053E-4
5.000000E-9	-1.044901E-3
5.050000E-9	-1.098002E-3
5.100000E-9	-1.132261E-3
5.150000E-9	-1.111706E-3
5.200000E-9	-1.079160E-3
5.250000E-9	-1.014068E-3
5.300000E-9	-9.404111E-4
5.350000E-9	-8.924485E-4
5.400000E-9	-8.650413E-4
5.450000E-9	-8.838837E-4
5.500000E-9	-9.147168E-4
5.550000E-9	-9.866607E-4
5.600000E-9	-1.039762E-3
5.650000E-9	-1.082586E-3
5.700000E-9	-1.130549E-3
5.750000E-9	-1.123697E-3
5.800000E-9	-1.058605E-3
5.850000E-9	-9.678183E-4
5.900000E-9	-8.479118E-4
5.950000E-9	-6.954592E-4
6.000000E-9	-5.755527E-4
6.050000E-9	-4.316649E-4
6.100000E-9	-3.151843E-4
6.150000E-9	-2.158332E-4
6.200000E-9	-1.798612E-4
6.250000E-9	-1.558799E-4
6.300000E-9	-1.181950E-4
6.350000E-9	-9.250079E-5
6.400000E-9	-6.509359E-5
6.450000E-9	2.226687E-5
6.500000E-9	2.192561E-4
6.550000E-9	5.995310E-4
6.600000E-9	1.267582E-3
6.650000E-9	2.355305E-3
6.700000E-9	3.999737E-3
6.750000E-9	6.238563E-3
6.800000E-9	9.154004E-3
6.850000E-9	1.274949E-2
6.900000E-9	1.700445E-2
6.950000E-9	2.180071E-2
7.000000E-9	2.693443E-2
7.050000E-9	3.228397E-2
7.100000E-9	3.755300E-2
7.150000E-9	4.251199E-2
7.200000E-9	4.696224E-2
7.250000E-9	5.070332E-2
7.300000E-9	5.366158E-2
7.350000E-9	5.574453E-2
7.400000E-9	5.701897E-2
7.450000E-9	5.747804E-2
7.500000E-9	5.726221E-2
7.550000E-9	5.655818E-2
7.600000E-9	5.546875E-2
7.650000E-9	5.419260E-2
7.700000E-9	5.297127E-2
7.750000E-9	5.197090E-2
7.800000E-9	5.121721E-2
7.850000E-9	5.077526E-2
7.900000E-9	5.073244E-2
7.950000E-9	5.101336E-2
8.000000E-9	5.152896E-2
8.050000E-9	5.219187E-2
8.100000E-9	5.288904E-2
8.150000E-9	5.353140E-2
8.200000E-9	5.398705E-2
8.250000E-9	5.424227E-2
8.300000E-9	5.424741E-2
8.350000E-9	5.396992E-2
8.400000E-9	5.329330E-2
8.450000E-9	5.241456E-2
8.500000E-9	5.130457E-2
8.550000E-9	4.989652E-2
8.600000E-9	4.832917E-2
8.650000E-9	4.674983E-2
8.700000E-9	4.511568E-2
8.750000E-9	4.349523E-2
8.800000E-9	4.195871E-2
8.850000E-9	4.045988E-2
8.900000E-9	3.910151E-2
8.950000E-9	3.790244E-2
9.000000E-9	3.683014E-2
9.050000E-9	3.590514E-2
9.100000E-9	3.512918E-2
9.150000E-9	3.446969E-2
9.200000E-9	3.385303E-2
9.250000E-9	3.339739E-2
9.300000E-9	3.289035E-2
9.350000E-9	3.248096E-2
9.400000E-9	3.218119E-2
9.450000E-9	3.188142E-2
9.500000E-9	3.166045E-2
9.550000E-9	3.147546E-2
9.600000E-9	3.134698E-2
9.650000E-9	3.130416E-2
9.700000E-9	3.132472E-2
9.750000E-9	3.142064E-2
9.800000E-9	3.167244E-2
9.850000E-9	3.200990E-2
9.900000E-9	3.243128E-2
9.950000E-9	3.294517E-2
1.000000E-8	3.352928E-2
1.005000E-8	3.419905E-2
1.010000E-8	3.496302E-2
1.015000E-8	3.579380E-2
1.020000E-8	3.666227E-2
1.025000E-8	3.750161E-2
1.030000E-8	3.833582E-2
1.035000E-8	3.915118E-2
1.040000E-8	3.987576E-2
1.045000E-8	4.055923E-2
1.050000E-8	4.117247E-2
1.055000E-8	4.168121E-2
1.060000E-8	4.207690E-2
1.065000E-8	4.237667E-2
1.070000E-8	4.255310E-2
1.075000E-8	4.262847E-2
1.080000E-8	4.260963E-2
1.085000E-8	4.248630E-2
1.090000E-8	4.232357E-2
1.095000E-8	4.201695E-2
1.100000E-8	4.161955E-2
1.105000E-8	4.116048E-2
1.110000E-8	4.056951E-2
1.115000E-8	3.987748E-2
1.120000E-8	3.914433E-2
1.125000E-8	3.831355E-2
1.130000E-8	3.745708E-2
1.135000E-8	3.654065E-2
1.140000E-8	3.557283E-2
1.145000E-8	3.462043E-2
1.150000E-8	3.369544E-2
1.155000E-8	3.274646E-2
1.160000E-8	3.188485E-2
1.165000E-8	3.107120E-2
1.170000E-8	3.029181E-2
1.175000E-8	2.958778E-2
1.180000E-8	2.893686E-2
1.185000E-8	2.840756E-2
1.190000E-8	2.799645E-2
1.195000E-8	2.758706E-2
1.200000E-8	2.723590E-2
1.205000E-8	2.700979E-2
1.210000E-8	2.682994E-2
1.215000E-8	2.671003E-2
1.220000E-8	2.673401E-2
1.225000E-8	2.686248E-2
1.230000E-8	2.704405E-2
1.235000E-8	2.735752E-2
1.240000E-8	2.780460E-2
1.245000E-8	2.830992E-2
1.250000E-8	2.898140E-2
1.255000E-8	2.976422E-2
1.260000E-8	3.051792E-2
1.265000E-8	3.130930E-2
1.270000E-8	3.216235E-2
1.275000E-8	3.300512E-2
1.280000E-8	3.378623E-2
1.285000E-8	3.450738E-2
1.290000E-8	3.519427E-2
1.295000E-8	3.587431E-2
1.300000E-8	3.650639E-2
1.305000E-8	3.704083E-2
1.310000E-8	3.753416E-2
1.315000E-8	3.794184E-2
1.320000E-8	3.824503E-2
1.325000E-8	3.841290E-2
1.330000E-8	3.852596E-2
1.335000E-8	3.847114E-2
1.340000E-8	3.832726E-2
1.345000E-8	3.810971E-2
1.350000E-8	3.774657E-2
1.355000E-8	3.733203E-2
1.360000E-8	3.682842E-2
1.365000E-8	3.627172E-2
1.370000E-8	3.567218E-2
1.375000E-8	3.502126E-2
1.380000E-8	3.431553E-2
1.385000E-8	3.359437E-2
1.390000E-8	3.280299E-2
1.395000E-8	3.199791E-2
1.400000E-8	3.116541E-2
1.405000E-8	3.029523E-2
1.410000E-8	2.942334E-2
1.415000E-8	2.858571E-2
1.420000E-8	2.779775E-2
1.425000E-8	2.706632E-2
1.430000E-8	2.639313E-2
1.435000E-8	2.574392E-2
1.440000E-8	2.518208E-2
1.445000E-8	2.470416E-2
1.450000E-8	2.431704E-2
1.455000E-8	2.404982E-2
1.460000E-8	2.391621E-2
1.465000E-8	2.392477E-2
1.470000E-8	2.403269E-2
1.475000E-8	2.421769E-2
1.480000E-8	2.452773E-2
1.485000E-8	2.491314E-2
1.490000E-8	2.536536E-2
1.495000E-8	2.588267E-2
1.500000E-8	2.646165E-2
1.505000E-8	2.703206E-2
1.510000E-8	2.760933E-2
1.515000E-8	2.821742E-2
1.520000E-8	2.885293E-2
1.525000E-8	2.951413E-2
1.530000E-8	3.022158E-2
1.535000E-8	3.092731E-2
1.540000E-8	3.164161E-2
1.545000E-8	3.235420E-2
1.550000E-8	3.302225E-2
1.555000E-8	3.366803E-2
1.560000E-8	3.425215E-2
1.565000E-8	3.477802E-2
1.570000E-8	3.525422E-2
1.575000E-8	3.554885E-2
1.580000E-8	3.573899E-2
1.585000E-8	3.583320E-2
1.590000E-8	3.580751E-2
1.595000E-8	3.570302E-2
1.600000E-8	3.553686E-2
1.605000E-8	3.526964E-2
1.610000E-8	3.490992E-2
1.615000E-8	3.446113E-2
1.620000E-8	3.397122E-2
1.625000E-8	3.340424E-2
1.630000E-8	3.277045E-2
1.635000E-8	3.214008E-2
1.640000E-8	3.143434E-2
1.645000E-8	3.064810E-2
1.650000E-8	2.982246E-2
1.655000E-8	2.896427E-2
1.660000E-8	2.805469E-2
1.665000E-8	2.713313E-2
1.670000E-8	2.622526E-2
1.675000E-8	2.535337E-2
1.680000E-8	2.450546E-2
1.685000E-8	2.369181E-2
1.690000E-8	2.300834E-2
1.695000E-8	2.243964E-2
1.700000E-8	2.200627E-2
1.705000E-8	2.167396E-2
1.710000E-8	2.144442E-2
1.715000E-8	2.139303E-2
1.720000E-8	2.145298E-2
1.725000E-8	2.167567E-2
1.730000E-8	2.201655E-2
1.735000E-8	2.243964E-2
1.740000E-8	2.293126E-2
1.745000E-8	2.351195E-2
1.750000E-8	2.414746E-2
1.755000E-8	2.484805E-2
1.760000E-8	2.559319E-2
1.765000E-8	2.631605E-2
1.770000E-8	2.708516E-2
1.775000E-8	2.787312E-2
1.780000E-8	2.867821E-2
1.785000E-8	2.946445E-2
1.790000E-8	3.023357E-2
1.795000E-8	3.091703E-2
1.800000E-8	3.156110E-2
1.805000E-8	3.208698E-2
1.810000E-8	3.255290E-2
1.815000E-8	3.296230E-2
1.820000E-8	3.331003E-2
1.825000E-8	3.357211E-2
1.830000E-8	3.376738E-2
1.835000E-8	3.387187E-2
1.840000E-8	3.393183E-2
1.845000E-8	3.390784E-2
1.850000E-8	3.380164E-2
1.855000E-8	3.357211E-2
1.860000E-8	3.322952E-2
1.865000E-8	3.282355E-2
1.870000E-8	3.229938E-2
1.875000E-8	3.169985E-2
1.880000E-8	3.105064E-2
1.885000E-8	3.028324E-2
1.890000E-8	2.946274E-2
1.895000E-8	2.860969E-2
1.900000E-8	2.770183E-2
1.905000E-8	2.675114E-2
1.910000E-8	2.581587E-2
1.915000E-8	2.486861E-2
1.920000E-8	2.393848E-2
1.925000E-8	2.301177E-2
1.930000E-8	2.218613E-2
1.935000E-8	2.148211E-2
1.940000E-8	2.086544E-2
1.945000E-8	2.040123E-2
1.950000E-8	2.005693E-2
1.955000E-8	1.984110E-2
1.960000E-8	1.971605E-2
1.965000E-8	1.971263E-2
1.970000E-8	1.982054E-2
1.975000E-8	2.003809E-2
1.980000E-8	2.033443E-2
1.985000E-8	2.072498E-2
1.990000E-8	2.119262E-2
1.995000E-8	2.176645E-2
2.000000E-8	2.237627E-2
2.005000E-8	2.301520E-2
2.010000E-8	2.370038E-2
2.015000E-8	2.439412E-2
2.020000E-8	2.511356E-2
2.025000E-8	2.584499E-2
2.030000E-8	2.659697E-2
2.035000E-8	2.733183E-2
2.040000E-8	2.802215E-2
2.045000E-8	2.866108E-2
2.050000E-8	2.929487E-2
2.055000E-8	2.988241E-2
2.060000E-8	3.045968E-2
2.065000E-8	3.096328E-2
2.070000E-8	3.134698E-2
2.075000E-8	3.171184E-2
2.080000E-8	3.193795E-2
2.085000E-8	3.207328E-2
2.090000E-8	3.214351E-2
2.095000E-8	3.205957E-2
2.100000E-8	3.185744E-2
2.105000E-8	3.157481E-2
2.110000E-8	3.118768E-2
2.115000E-8	3.065667E-2
2.120000E-8	3.001774E-2
2.125000E-8	2.930001E-2
2.130000E-8	2.848978E-2
2.135000E-8	2.762474E-2
2.140000E-8	2.677169E-2
2.145000E-8	2.590494E-2
2.150000E-8	2.509129E-2
2.155000E-8	2.426394E-2
2.160000E-8	2.346399E-2
2.165000E-8	2.275483E-2
2.170000E-8	2.211761E-2
2.175000E-8	2.146669E-2
2.180000E-8	2.090484E-2
2.185000E-8	2.041494E-2
2.190000E-8	1.996786E-2
2.195000E-8	1.961156E-2
2.200000E-8	1.932036E-2
2.205000E-8	1.911652E-2
2.210000E-8	1.896578E-2
2.215000E-8	1.886129E-2
2.220000E-8	1.884245E-2
2.225000E-8	1.888699E-2
2.230000E-8	1.902916E-2
2.235000E-8	1.922958E-2
2.240000E-8	1.952592E-2
2.245000E-8	1.988050E-2
2.250000E-8	2.030873E-2
2.255000E-8	2.081063E-2
2.260000E-8	2.139646E-2
2.265000E-8	2.207650E-2
2.270000E-8	2.281992E-2
2.275000E-8	2.358732E-2
2.280000E-8	2.438042E-2
2.285000E-8	2.517865E-2
2.290000E-8	2.599402E-2
2.295000E-8	2.678540E-2
2.300000E-8	2.754595E-2
2.305000E-8	2.822428E-2
2.310000E-8	2.880497E-2
2.315000E-8	2.927603E-2
2.320000E-8	2.966658E-2
2.325000E-8	2.992352E-2
2.330000E-8	3.012223E-2
2.335000E-8	3.021815E-2
2.340000E-8	3.025070E-2
2.345000E-8	3.017533E-2
2.350000E-8	3.007255E-2
2.355000E-8	2.989269E-2
2.360000E-8	2.960491E-2
2.365000E-8	2.925376E-2
2.370000E-8	2.886149E-2
2.375000E-8	2.834418E-2
2.380000E-8	2.776178E-2
2.385000E-8	2.710229E-2
2.390000E-8	2.638114E-2
2.395000E-8	2.559490E-2
2.400000E-8	2.474527E-2
2.405000E-8	2.390764E-2
2.410000E-8	2.305459E-2
2.415000E-8	2.221353E-2
2.420000E-8	2.143586E-2
2.425000E-8	2.073355E-2
2.430000E-8	2.008948E-2
2.435000E-8	1.947624E-2
2.440000E-8	1.894351E-2
2.445000E-8	1.848616E-2
2.450000E-8	1.814185E-2
2.455000E-8	1.780783E-2
2.460000E-8	1.752862E-2
2.465000E-8	1.733848E-2
2.470000E-8	1.723570E-2
2.475000E-8	1.720658E-2
2.480000E-8	1.729908E-2
2.485000E-8	1.748922E-2
2.490000E-8	1.773074E-2
2.495000E-8	1.808875E-2
2.500000E-8	1.853412E-2
2.505000E-8	1.909083E-2
2.510000E-8	1.976230E-2
2.515000E-8	2.053484E-2
2.520000E-8	2.139817E-2
2.525000E-8	2.229576E-2
2.530000E-8	2.322760E-2
2.535000E-8	2.415773E-2
2.540000E-8	2.503990E-2
2.545000E-8	2.588267E-2
2.550000E-8	2.661239E-2
2.555000E-8	2.729243E-2
2.560000E-8	2.783715E-2
2.565000E-8	2.829965E-2
2.570000E-8	2.865594E-2
2.575000E-8	2.888376E-2
2.580000E-8	2.902080E-2
2.585000E-8	2.910131E-2
2.590000E-8	2.906362E-2
2.595000E-8	2.893001E-2
2.600000E-8	2.871932E-2
2.605000E-8	2.844011E-2
2.610000E-8	2.811465E-2
2.615000E-8	2.768984E-2
2.620000E-8	2.724104E-2
2.625000E-8	2.675114E-2
2.630000E-8	2.621670E-2
2.635000E-8	2.563772E-2
2.640000E-8	2.504333E-2
2.645000E-8	2.442153E-2
2.650000E-8	2.370551E-2
2.655000E-8	2.297751E-2
2.660000E-8	2.227006E-2
2.665000E-8	2.154206E-2
2.670000E-8	2.080378E-2
2.675000E-8	2.007749E-2
2.680000E-8	1.933920E-2
2.685000E-8	1.865916E-2
2.690000E-8	1.802537E-2
2.695000E-8	1.740186E-2
2.700000E-8	1.688283E-2
2.705000E-8	1.652311E-2
2.710000E-8	1.623534E-2
2.715000E-8	1.607090E-2
2.720000E-8	1.601094E-2
2.725000E-8	1.604863E-2
2.730000E-8	1.617881E-2
2.735000E-8	1.640663E-2
2.740000E-8	1.672353E-2
2.745000E-8	1.711922E-2
2.750000E-8	1.755602E-2
2.755000E-8	1.805792E-2
2.760000E-8	1.855639E-2
2.765000E-8	1.915249E-2
2.770000E-8	1.981883E-2
2.775000E-8	2.056054E-2
2.780000E-8	2.132280E-2
2.785000E-8	2.209192E-2
2.790000E-8	2.286959E-2
2.795000E-8	2.365926E-2
2.800000E-8	2.444208E-2
2.805000E-8	2.520606E-2
2.810000E-8	2.590494E-2
2.815000E-8	2.653702E-2
2.820000E-8	2.705091E-2
2.825000E-8	2.743803E-2
2.830000E-8	2.776692E-2
2.835000E-8	2.798789E-2
2.840000E-8	2.812835E-2
2.845000E-8	2.813520E-2
2.850000E-8	2.805812E-2
2.855000E-8	2.788683E-2
2.860000E-8	2.759391E-2
2.865000E-8	2.719308E-2
2.870000E-8	2.673230E-2
2.875000E-8	2.620128E-2
2.880000E-8	2.561545E-2
2.885000E-8	2.496111E-2
2.890000E-8	2.427250E-2
2.895000E-8	2.355649E-2
2.900000E-8	2.281135E-2
2.905000E-8	2.201826E-2
2.910000E-8	2.121317E-2
2.915000E-8	2.046461E-2
2.920000E-8	1.966980E-2
2.925000E-8	1.893837E-2
2.930000E-8	1.824634E-2
2.935000E-8	1.761084E-2
2.940000E-8	1.704043E-2
2.945000E-8	1.661219E-2
2.950000E-8	1.629872E-2
2.955000E-8	1.606062E-2
2.960000E-8	1.593729E-2
2.965000E-8	1.591330E-2
2.970000E-8	1.598011E-2
2.975000E-8	1.616340E-2
2.980000E-8	1.640663E-2
2.985000E-8	1.669955E-2
2.990000E-8	1.706783E-2
2.995000E-8	1.746866E-2
3.000000E-8	1.785065E-2
3.005000E-8	1.825662E-2
3.010000E-8	1.873796E-2
3.015000E-8	1.921073E-2
3.020000E-8	1.976059E-2
3.025000E-8	2.034985E-2
3.030000E-8	2.096822E-2
3.035000E-8	2.162599E-2
3.040000E-8	2.231974E-2
3.045000E-8	2.300492E-2
3.050000E-8	2.368325E-2
3.055000E-8	2.434444E-2
3.060000E-8	2.494226E-2
3.065000E-8	2.549041E-2
3.070000E-8	2.594948E-2
3.075000E-8	2.635031E-2
3.080000E-8	2.663123E-2
3.085000E-8	2.688646E-2
3.090000E-8	2.702350E-2
3.095000E-8	2.705604E-2
3.100000E-8	2.703035E-2
3.105000E-8	2.691216E-2
3.110000E-8	2.673230E-2
3.115000E-8	2.643767E-2
3.120000E-8	2.606082E-2
3.125000E-8	2.563601E-2
3.130000E-8	2.516152E-2
3.135000E-8	2.459625E-2
3.140000E-8	2.393162E-2
3.145000E-8	2.320362E-2
3.150000E-8	2.242251E-2
3.155000E-8	2.154891E-2
3.160000E-8	2.065132E-2
3.165000E-8	1.980170E-2
3.170000E-8	1.896749E-2
3.175000E-8	1.819495E-2
3.180000E-8	1.750121E-2
3.185000E-8	1.686913E-2
3.190000E-8	1.632955E-2
3.195000E-8	1.584993E-2
3.200000E-8	1.548678E-2
3.205000E-8	1.524525E-2
3.210000E-8	1.508424E-2
3.215000E-8	1.500887E-2
3.220000E-8	1.504313E-2
3.225000E-8	1.518530E-2
3.230000E-8	1.539257E-2
3.235000E-8	1.567520E-2
3.240000E-8	1.601266E-2
3.245000E-8	1.640150E-2
3.250000E-8	1.682973E-2
3.255000E-8	1.729737E-2
3.260000E-8	1.780098E-2
3.265000E-8	1.830801E-2
3.270000E-8	1.883217E-2
3.275000E-8	1.940601E-2
3.280000E-8	1.996614E-2
3.285000E-8	2.056739E-2
3.290000E-8	2.118063E-2
3.295000E-8	2.172021E-2
3.300000E-8	2.219983E-2
3.305000E-8	2.267946E-2
3.310000E-8	2.314709E-2
3.315000E-8	2.356505E-2
3.320000E-8	2.394190E-2
3.325000E-8	2.426736E-2
3.330000E-8	2.448662E-2
3.335000E-8	2.460310E-2
3.340000E-8	2.467162E-2
3.345000E-8	2.462708E-2
3.350000E-8	2.451403E-2
3.355000E-8	2.432732E-2
3.360000E-8	2.411320E-2
3.365000E-8	2.384084E-2
3.370000E-8	2.352737E-2
3.375000E-8	2.318135E-2
3.380000E-8	2.279422E-2
3.385000E-8	2.234714E-2
3.390000E-8	2.181784E-2
3.395000E-8	2.128683E-2
3.400000E-8	2.073012E-2
3.405000E-8	2.011860E-2
3.410000E-8	1.949166E-2
3.415000E-8	1.882189E-2
3.420000E-8	1.815727E-2
3.425000E-8	1.754746E-2
3.430000E-8	1.697362E-2
3.435000E-8	1.641006E-2
3.440000E-8	1.596641E-2
3.445000E-8	1.560497E-2
3.450000E-8	1.532234E-2
3.455000E-8	1.509623E-2
3.460000E-8	1.495234E-2
3.465000E-8	1.492493E-2
3.470000E-8	1.496433E-2
3.475000E-8	1.504826E-2
3.480000E-8	1.520243E-2
3.485000E-8	1.534632E-2
3.490000E-8	1.555358E-2
3.495000E-8	1.580368E-2
3.500000E-8	1.610344E-2
3.505000E-8	1.647173E-2
3.510000E-8	1.689482E-2
3.515000E-8	1.736760E-2
3.520000E-8	1.792602E-2
3.525000E-8	1.852555E-2
3.530000E-8	1.917134E-2
3.535000E-8	1.978628E-2
3.540000E-8	2.043549E-2
3.545000E-8	2.104359E-2
3.550000E-8	2.160886E-2
3.555000E-8	2.213645E-2
3.560000E-8	2.259038E-2
3.565000E-8	2.299978E-2
3.570000E-8	2.335265E-2
3.575000E-8	2.362329E-2
3.580000E-8	2.379801E-2
3.585000E-8	2.394190E-2
3.590000E-8	2.401898E-2
3.595000E-8	2.404125E-2
3.600000E-8	2.401213E-2
3.605000E-8	2.397102E-2
3.610000E-8	2.387681E-2
3.615000E-8	2.366612E-2
3.620000E-8	2.336978E-2
3.625000E-8	2.301862E-2
3.630000E-8	2.259895E-2
3.635000E-8	2.210048E-2
3.640000E-8	2.150266E-2
3.645000E-8	2.084146E-2
3.650000E-8	2.014258E-2
3.655000E-8	1.940772E-2
3.660000E-8	1.866088E-2
3.665000E-8	1.796884E-2
3.670000E-8	1.727853E-2
3.675000E-8	1.663274E-2
3.680000E-8	1.603492E-2
3.685000E-8	1.551933E-2
3.690000E-8	1.503970E-2
3.695000E-8	1.463202E-2
3.700000E-8	1.427059E-2
3.705000E-8	1.396225E-2
3.710000E-8	1.370360E-2
3.715000E-8	1.352031E-2
3.720000E-8	1.338328E-2
3.725000E-8	1.333018E-2
3.730000E-8	1.335073E-2
3.735000E-8	1.350318E-2
3.740000E-8	1.377726E-2
3.745000E-8	1.414040E-2
3.750000E-8	1.457892E-2
3.755000E-8	1.509965E-2
3.760000E-8	1.571118E-2
3.765000E-8	1.631242E-2
3.770000E-8	1.697191E-2
3.775000E-8	1.763653E-2
3.780000E-8	1.825491E-2
3.785000E-8	1.884245E-2
3.790000E-8	1.944541E-2
3.795000E-8	2.002096E-2
3.800000E-8	2.054170E-2
3.805000E-8	2.103160E-2
3.810000E-8	2.148724E-2
3.815000E-8	2.188979E-2
3.820000E-8	2.228034E-2
3.825000E-8	2.261437E-2
3.830000E-8	2.289186E-2
3.835000E-8	2.311969E-2
3.840000E-8	2.323445E-2
3.845000E-8	2.327214E-2
3.850000E-8	2.323445E-2
3.855000E-8	2.308029E-2
3.860000E-8	2.283705E-2
3.865000E-8	2.252700E-2
3.870000E-8	2.212960E-2
3.875000E-8	2.169451E-2
3.880000E-8	2.119433E-2
3.885000E-8	2.072156E-2
3.890000E-8	2.026762E-2
3.895000E-8	1.977601E-2
3.900000E-8	1.925184E-2
3.905000E-8	1.874995E-2
3.910000E-8	1.825148E-2
3.915000E-8	1.776329E-2
3.920000E-8	1.720829E-2
3.925000E-8	1.669955E-2
3.930000E-8	1.621136E-2
3.935000E-8	1.575057E-2
3.940000E-8	1.533775E-2
3.945000E-8	1.497632E-2
3.950000E-8	1.466114E-2
3.955000E-8	1.443160E-2
3.960000E-8	1.425517E-2
3.965000E-8	1.414211E-2
3.970000E-8	1.406846E-2
3.975000E-8	1.403934E-2
3.980000E-8	1.410786E-2
3.985000E-8	1.423975E-2
3.990000E-8	1.446415E-2
3.995000E-8	1.470054E-2
4.000000E-8	1.500202E-2
4.005000E-8	1.536173E-2
4.010000E-8	1.576256E-2
4.015000E-8	1.621136E-2
4.020000E-8	1.668242E-2
4.025000E-8	1.720829E-2
4.030000E-8	1.775986E-2
4.035000E-8	1.833028E-2
4.040000E-8	1.889555E-2
4.045000E-8	1.947795E-2
4.050000E-8	2.002096E-2
4.055000E-8	2.050401E-2
4.060000E-8	2.095966E-2
4.065000E-8	2.132109E-2
4.070000E-8	2.164484E-2
4.075000E-8	2.182812E-2
4.080000E-8	2.194118E-2
4.085000E-8	2.197030E-2
4.090000E-8	2.195659E-2
4.095000E-8	2.188465E-2
4.100000E-8	2.178872E-2
4.105000E-8	2.166368E-2
4.110000E-8	2.145127E-2
4.115000E-8	2.124572E-2
4.120000E-8	2.095109E-2
4.125000E-8	2.058795E-2
4.130000E-8	2.020938E-2
4.135000E-8	1.980170E-2
4.140000E-8	1.932721E-2
4.145000E-8	1.884074E-2
4.150000E-8	1.832685E-2
4.155000E-8	1.777528E-2
4.160000E-8	1.722714E-2
4.165000E-8	1.666872E-2
4.170000E-8	1.618566E-2
4.175000E-8	1.569747E-2
4.180000E-8	1.523326E-2
4.185000E-8	1.482044E-2
4.190000E-8	1.446072E-2
4.195000E-8	1.413526E-2
4.200000E-8	1.385263E-2
4.205000E-8	1.362652E-2
4.210000E-8	1.350832E-2
4.215000E-8	1.342268E-2
4.220000E-8	1.343124E-2
4.225000E-8	1.346550E-2
4.230000E-8	1.357513E-2
4.235000E-8	1.372758E-2
4.240000E-8	1.394684E-2
4.245000E-8	1.419008E-2
4.250000E-8	1.452239E-2
4.255000E-8	1.486498E-2
4.260000E-8	1.525382E-2
4.265000E-8	1.562039E-2
4.270000E-8	1.604863E-2
4.275000E-8	1.647687E-2
4.280000E-8	1.694793E-2
4.285000E-8	1.745667E-2
4.290000E-8	1.794315E-2
4.295000E-8	1.841250E-2
4.300000E-8	1.885958E-2
4.305000E-8	1.932893E-2
4.310000E-8	1.973147E-2
4.315000E-8	2.009462E-2
4.320000E-8	2.037211E-2
4.325000E-8	2.056568E-2
4.330000E-8	2.072841E-2
4.335000E-8	2.079007E-2
4.340000E-8	2.079179E-2
4.345000E-8	2.073012E-2
4.350000E-8	2.067702E-2
4.355000E-8	2.057767E-2
4.360000E-8	2.040123E-2
4.365000E-8	2.022480E-2
4.370000E-8	2.004494E-2
4.375000E-8	1.981883E-2
4.380000E-8	1.952763E-2
4.385000E-8	1.925527E-2
4.390000E-8	1.890069E-2
4.395000E-8	1.854268E-2
4.400000E-8	1.811616E-2
4.405000E-8	1.767250E-2
4.410000E-8	1.721343E-2
4.415000E-8	1.669270E-2
4.420000E-8	1.616682E-2
4.425000E-8	1.557071E-2
4.430000E-8	1.497975E-2
4.435000E-8	1.435966E-2
4.440000E-8	1.380124E-2
4.445000E-8	1.331647E-2
4.450000E-8	1.291735E-2
4.455000E-8	1.262787E-2
4.460000E-8	1.243773E-2
4.465000E-8	1.236750E-2
4.470000E-8	1.237949E-2
4.475000E-8	1.246342E-2
4.480000E-8	1.261074E-2
4.485000E-8	1.280773E-2
4.490000E-8	1.303212E-2
4.495000E-8	1.327365E-2
4.500000E-8	1.349976E-2
4.505000E-8	1.372929E-2
4.510000E-8	1.397596E-2
4.515000E-8	1.424489E-2
4.520000E-8	1.452753E-2
4.525000E-8	1.480160E-2
4.530000E-8	1.512877E-2
4.535000E-8	1.550048E-2
4.540000E-8	1.587562E-2
4.545000E-8	1.625589E-2
4.550000E-8	1.669784E-2
4.555000E-8	1.711751E-2
4.560000E-8	1.753033E-2
4.565000E-8	1.795685E-2
4.570000E-8	1.835426E-2
4.575000E-8	1.866430E-2
4.580000E-8	1.892981E-2
4.585000E-8	1.913536E-2
4.590000E-8	1.925013E-2
4.595000E-8	1.932550E-2
4.600000E-8	1.937689E-2
4.605000E-8	1.934948E-2
4.610000E-8	1.925870E-2
4.615000E-8	1.909083E-2
4.620000E-8	1.884587E-2
4.625000E-8	1.854611E-2
4.630000E-8	1.822579E-2
4.635000E-8	1.790889E-2
4.640000E-8	1.753547E-2
4.645000E-8	1.717061E-2
4.650000E-8	1.679376E-2
4.655000E-8	1.638779E-2
4.660000E-8	1.603321E-2
4.665000E-8	1.568206E-2
4.670000E-8	1.536345E-2
4.675000E-8	1.506026E-2
4.680000E-8	1.474165E-2
4.685000E-8	1.444359E-2
4.690000E-8	1.417295E-2
4.695000E-8	1.387661E-2
4.700000E-8	1.361110E-2
4.705000E-8	1.343295E-2
4.710000E-8	1.328735E-2
4.715000E-8	1.316402E-2
4.720000E-8	1.313147E-2
4.725000E-8	1.317258E-2
4.730000E-8	1.325994E-2
4.735000E-8	1.337814E-2
4.740000E-8	1.355286E-2
4.745000E-8	1.376869E-2
4.750000E-8	1.402221E-2
4.755000E-8	1.429285E-2
4.760000E-8	1.458234E-2
4.765000E-8	1.485128E-2
4.770000E-8	1.514076E-2
4.775000E-8	1.547136E-2
4.780000E-8	1.577456E-2
4.785000E-8	1.606062E-2
4.790000E-8	1.639807E-2
4.795000E-8	1.673381E-2
4.800000E-8	1.708668E-2
4.805000E-8	1.744811E-2
4.810000E-8	1.779412E-2
4.815000E-8	1.811787E-2
4.820000E-8	1.839880E-2
4.825000E-8	1.863347E-2
4.830000E-8	1.882875E-2
4.835000E-8	1.897949E-2
4.840000E-8	1.908911E-2
4.845000E-8	1.914393E-2
4.850000E-8	1.911823E-2
4.855000E-8	1.907712E-2
4.860000E-8	1.899661E-2
4.865000E-8	1.887842E-2
4.870000E-8	1.872083E-2
4.875000E-8	1.848787E-2
4.880000E-8	1.822236E-2
4.885000E-8	1.789005E-2
4.890000E-8	1.754917E-2
4.895000E-8	1.708496E-2
4.900000E-8	1.660705E-2
4.905000E-8	1.608289E-2
4.910000E-8	1.554845E-2
4.915000E-8	1.503627E-2
4.920000E-8	1.448984E-2
4.925000E-8	1.403249E-2
4.930000E-8	1.362823E-2
4.935000E-8	1.329592E-2
4.940000E-8	1.305096E-2
4.945000E-8	1.290536E-2
4.950000E-8	1.281800E-2
4.955000E-8	1.274949E-2
4.960000E-8	1.273921E-2
4.965000E-8	1.271865E-2
4.970000E-8	1.274606E-2
4.975000E-8	1.276662E-2
4.980000E-8	1.280944E-2
4.985000E-8	1.287111E-2
4.990000E-8	1.293791E-2
4.995000E-8	1.302184E-2
5.000000E-8	1.317601E-2
5.005000E-8	1.336101E-2
5.010000E-8	1.354087E-2
5.015000E-8	1.376698E-2
5.020000E-8	1.398795E-2
5.025000E-8	1.424489E-2
5.030000E-8	1.451554E-2
5.035000E-8	1.479475E-2
5.040000E-8	1.508595E-2
5.045000E-8	1.538914E-2
5.050000E-8	1.567863E-2
5.055000E-8	1.599381E-2
5.060000E-8	1.630728E-2
5.065000E-8	1.664816E-2
5.070000E-8	1.703871E-2
5.075000E-8	1.744468E-2
5.080000E-8	1.779241E-2
5.085000E-8	1.814357E-2
5.090000E-8	1.846560E-2
5.095000E-8	1.872254E-2
5.100000E-8	1.888870E-2
5.105000E-8	1.899833E-2
5.110000E-8	1.902573E-2
5.115000E-8	1.896749E-2
5.120000E-8	1.880305E-2
5.125000E-8	1.852898E-2
5.130000E-8	1.823093E-2
5.135000E-8	1.784551E-2
5.140000E-8	1.739158E-2
5.145000E-8	1.692052E-2
5.150000E-8	1.644089E-2
5.155000E-8	1.590817E-2
5.160000E-8	1.534118E-2
5.165000E-8	1.485984E-2
5.170000E-8	1.440591E-2
5.175000E-8	1.397596E-2
5.180000E-8	1.361795E-2
5.185000E-8	1.335930E-2
5.190000E-8	1.312976E-2
5.195000E-8	1.298073E-2
5.200000E-8	1.288823E-2
5.205000E-8	1.281972E-2
5.210000E-8	1.278374E-2
5.215000E-8	1.276319E-2
5.220000E-8	1.273064E-2
5.225000E-8	1.271694E-2
5.230000E-8	1.270152E-2
5.235000E-8	1.267240E-2
5.240000E-8	1.263986E-2
5.245000E-8	1.262273E-2
5.250000E-8	1.261074E-2
5.255000E-8	1.266726E-2
5.260000E-8	1.277518E-2
5.265000E-8	1.294819E-2
5.270000E-8	1.314860E-2
5.275000E-8	1.336957E-2
5.280000E-8	1.364878E-2
5.285000E-8	1.396054E-2
5.290000E-8	1.425688E-2
5.295000E-8	1.449669E-2
5.300000E-8	1.472966E-2
5.305000E-8	1.492493E-2
5.310000E-8	1.512535E-2
5.315000E-8	1.528123E-2
5.320000E-8	1.548507E-2
5.325000E-8	1.570261E-2
5.330000E-8	1.592187E-2
5.335000E-8	1.614798E-2
5.340000E-8	1.634668E-2
5.345000E-8	1.654710E-2
5.350000E-8	1.674066E-2
5.355000E-8	1.686570E-2
5.360000E-8	1.693594E-2
5.365000E-8	1.694621E-2
5.370000E-8	1.689654E-2
5.375000E-8	1.675436E-2
5.380000E-8	1.651284E-2
5.385000E-8	1.627131E-2
5.390000E-8	1.598696E-2
5.395000E-8	1.569233E-2
5.400000E-8	1.534803E-2
5.405000E-8	1.501229E-2
5.410000E-8	1.470567E-2
5.415000E-8	1.437850E-2
5.420000E-8	1.410100E-2
5.425000E-8	1.387661E-2
5.430000E-8	1.369503E-2
5.435000E-8	1.348434E-2
5.440000E-8	1.328393E-2
5.445000E-8	1.310407E-2
5.450000E-8	1.295333E-2
5.455000E-8	1.280944E-2
5.460000E-8	1.266555E-2
5.465000E-8	1.254222E-2
5.470000E-8	1.242745E-2
5.475000E-8	1.233666E-2
5.480000E-8	1.228356E-2
5.485000E-8	1.228870E-2
5.490000E-8	1.235037E-2
5.495000E-8	1.243602E-2
5.500000E-8	1.258676E-2
5.505000E-8	1.279402E-2
5.510000E-8	1.300643E-2
5.515000E-8	1.323254E-2
5.520000E-8	1.350147E-2
5.525000E-8	1.378239E-2
5.530000E-8	1.402906E-2
5.535000E-8	1.429285E-2
5.540000E-8	1.452753E-2
5.545000E-8	1.473651E-2
5.550000E-8	1.494549E-2
5.555000E-8	1.513391E-2
5.560000E-8	1.528636E-2
5.565000E-8	1.542683E-2
5.570000E-8	1.553474E-2
5.575000E-8	1.560155E-2
5.580000E-8	1.563409E-2
5.585000E-8	1.567007E-2
5.590000E-8	1.567692E-2
5.595000E-8	1.565807E-2
5.600000E-8	1.563923E-2
5.605000E-8	1.562553E-2
5.610000E-8	1.561525E-2
5.615000E-8	1.557071E-2
5.620000E-8	1.551247E-2
5.625000E-8	1.544224E-2
5.630000E-8	1.534289E-2
5.635000E-8	1.526581E-2
5.640000E-8	1.510308E-2
5.645000E-8	1.496776E-2
5.650000E-8	1.480331E-2
5.655000E-8	1.460461E-2
5.660000E-8	1.438535E-2
5.665000E-8	1.412670E-2
5.670000E-8	1.384406E-2
5.675000E-8	1.356656E-2
5.680000E-8	1.326851E-2
5.685000E-8	1.301671E-2
5.690000E-8	1.278032E-2
5.695000E-8	1.255250E-2
5.700000E-8	1.236578E-2
5.705000E-8	1.219449E-2
5.710000E-8	1.204032E-2
5.715000E-8	1.193241E-2
5.720000E-8	1.184847E-2
5.725000E-8	1.181250E-2
5.730000E-8	1.179537E-2
5.735000E-8	1.183477E-2
5.740000E-8	1.192384E-2
5.745000E-8	1.205745E-2
5.750000E-8	1.220134E-2
5.755000E-8	1.237435E-2
5.760000E-8	1.260217E-2
5.765000E-8	1.285226E-2
5.770000E-8	1.309893E-2
5.775000E-8	1.333189E-2
5.780000E-8	1.359226E-2
5.785000E-8	1.382693E-2
5.790000E-8	1.398795E-2
5.795000E-8	1.411985E-2
5.800000E-8	1.422605E-2
5.805000E-8	1.433568E-2
5.810000E-8	1.445216E-2
5.815000E-8	1.457378E-2
5.820000E-8	1.470739E-2
5.825000E-8	1.482901E-2
5.830000E-8	1.497461E-2
5.835000E-8	1.509109E-2
5.840000E-8	1.521442E-2
5.845000E-8	1.529664E-2
5.850000E-8	1.533261E-2
5.855000E-8	1.532576E-2
5.860000E-8	1.532748E-2
5.865000E-8	1.526410E-2
5.870000E-8	1.517674E-2
5.875000E-8	1.511336E-2
5.880000E-8	1.499174E-2
5.885000E-8	1.487697E-2
5.890000E-8	1.480160E-2
5.895000E-8	1.471938E-2
5.900000E-8	1.461146E-2
5.905000E-8	1.444873E-2
5.910000E-8	1.430656E-2
5.915000E-8	1.414725E-2
5.920000E-8	1.394512E-2
5.925000E-8	1.373443E-2
5.930000E-8	1.350147E-2
5.935000E-8	1.327879E-2
5.940000E-8	1.299272E-2
5.945000E-8	1.274435E-2
5.950000E-8	1.253879E-2
5.955000E-8	1.234866E-2
5.960000E-8	1.219963E-2
5.965000E-8	1.209685E-2
5.970000E-8	1.203690E-2
5.975000E-8	1.199921E-2
5.980000E-8	1.195982E-2
5.985000E-8	1.199065E-2
5.990000E-8	1.207458E-2
5.995000E-8	1.214653E-2
6.000000E-8	1.224930E-2
6.005000E-8	1.236921E-2
6.010000E-8	1.248227E-2
6.015000E-8	1.258676E-2
6.020000E-8	1.270666E-2
6.025000E-8	1.282314E-2
6.030000E-8	1.289337E-2
6.035000E-8	1.301157E-2
6.040000E-8	1.314689E-2
6.045000E-8	1.328735E-2
6.050000E-8	1.341582E-2
6.055000E-8	1.358369E-2
6.060000E-8	1.375156E-2
6.065000E-8	1.390059E-2
6.070000E-8	1.410957E-2
6.075000E-8	1.426545E-2
6.080000E-8	1.443845E-2
6.085000E-8	1.458748E-2
6.090000E-8	1.474850E-2
6.095000E-8	1.488040E-2
6.100000E-8	1.495748E-2
6.105000E-8	1.500030E-2
6.110000E-8	1.497632E-2
6.115000E-8	1.495063E-2
6.120000E-8	1.487183E-2
6.125000E-8	1.475192E-2
6.130000E-8	1.459776E-2
6.135000E-8	1.441447E-2
6.140000E-8	1.424318E-2
6.145000E-8	1.403591E-2
6.150000E-8	1.381837E-2
6.155000E-8	1.357170E-2
6.160000E-8	1.337814E-2
6.165000E-8	1.317601E-2
6.170000E-8	1.300129E-2
6.175000E-8	1.287453E-2
6.180000E-8	1.272037E-2
6.185000E-8	1.259361E-2
6.190000E-8	1.246342E-2
6.195000E-8	1.229042E-2
6.200000E-8	1.212940E-2
6.205000E-8	1.200778E-2
6.210000E-8	1.184162E-2
6.215000E-8	1.164977E-2
6.220000E-8	1.149389E-2
6.225000E-8	1.134315E-2
6.230000E-8	1.121982E-2
6.235000E-8	1.117015E-2
6.240000E-8	1.111019E-2
6.245000E-8	1.107593E-2
6.250000E-8	1.111191E-2
6.255000E-8	1.117015E-2
6.260000E-8	1.122325E-2
6.265000E-8	1.131746E-2
6.270000E-8	1.144250E-2
6.275000E-8	1.154871E-2
6.280000E-8	1.168232E-2
6.285000E-8	1.185704E-2
6.290000E-8	1.204718E-2
6.295000E-8	1.225444E-2
6.300000E-8	1.246171E-2
6.305000E-8	1.265699E-2
6.310000E-8	1.286768E-2
6.315000E-8	1.309036E-2
6.320000E-8	1.328221E-2
6.325000E-8	1.338670E-2
6.330000E-8	1.349976E-2
6.335000E-8	1.353573E-2
6.340000E-8	1.352545E-2
6.345000E-8	1.348605E-2
6.350000E-8	1.337300E-2
6.355000E-8	1.322397E-2
6.360000E-8	1.306809E-2
6.365000E-8	1.286768E-2
6.370000E-8	1.273407E-2
6.375000E-8	1.263643E-2
6.380000E-8	1.256277E-2
6.385000E-8	1.254736E-2
6.390000E-8	1.253365E-2
6.395000E-8	1.253708E-2
6.400000E-8	1.251481E-2
6.405000E-8	1.250625E-2
6.410000E-8	1.245315E-2
6.415000E-8	1.236921E-2
6.420000E-8	1.222704E-2
6.425000E-8	1.204375E-2
6.430000E-8	1.186732E-2
6.435000E-8	1.166519E-2
6.440000E-8	1.143737E-2
6.445000E-8	1.117186E-2
6.450000E-8	1.090635E-2
6.455000E-8	1.063742E-2
6.460000E-8	1.039247E-2
6.465000E-8	1.019205E-2
6.470000E-8	1.001562E-2
6.475000E-8	9.911128E-3
6.480000E-8	9.882007E-3
6.485000E-8	9.902563E-3
6.490000E-8	9.971081E-3
6.495000E-8	1.014066E-2
6.500000E-8	1.033423E-2
6.505000E-8	1.052094E-2
6.510000E-8	1.072135E-2
6.515000E-8	1.087038E-2
6.520000E-8	1.105367E-2
6.525000E-8	1.120269E-2
6.530000E-8	1.133973E-2
6.535000E-8	1.146820E-2
6.540000E-8	1.157440E-2
6.545000E-8	1.167889E-2
6.550000E-8	1.173028E-2
6.555000E-8	1.177653E-2
6.560000E-8	1.179709E-2
6.565000E-8	1.181764E-2
6.570000E-8	1.188273E-2
6.575000E-8	1.194097E-2
6.580000E-8	1.199921E-2
6.585000E-8	1.207116E-2
6.590000E-8	1.210542E-2
6.595000E-8	1.214653E-2
6.600000E-8	1.214481E-2
6.605000E-8	1.214310E-2
6.610000E-8	1.213454E-2
6.615000E-8	1.212255E-2
6.620000E-8	1.207801E-2
6.625000E-8	1.204204E-2
6.630000E-8	1.196153E-2
6.635000E-8	1.191528E-2
6.640000E-8	1.184334E-2
6.645000E-8	1.176111E-2
6.650000E-8	1.169088E-2
6.655000E-8	1.158982E-2
6.660000E-8	1.149903E-2
6.665000E-8	1.142880E-2
6.670000E-8	1.134829E-2
6.675000E-8	1.131917E-2
6.680000E-8	1.128663E-2
6.685000E-8	1.129348E-2
6.690000E-8	1.129005E-2
6.695000E-8	1.130376E-2
6.700000E-8	1.130376E-2
6.705000E-8	1.132089E-2
6.710000E-8	1.129177E-2
6.715000E-8	1.124209E-2
6.720000E-8	1.116501E-2
6.725000E-8	1.108279E-2
6.730000E-8	1.102797E-2
6.735000E-8	1.098001E-2
6.740000E-8	1.096802E-2
6.745000E-8	1.098857E-2
6.750000E-8	1.102968E-2
6.755000E-8	1.107079E-2
6.760000E-8	1.111704E-2
6.765000E-8	1.120783E-2
6.770000E-8	1.129690E-2
6.775000E-8	1.137913E-2
6.780000E-8	1.146477E-2
6.785000E-8	1.152644E-2
6.790000E-8	1.158982E-2
6.795000E-8	1.164635E-2
6.800000E-8	1.168746E-2
6.805000E-8	1.172514E-2
6.810000E-8	1.177824E-2
6.815000E-8	1.181593E-2
6.820000E-8	1.186732E-2
6.825000E-8	1.189472E-2
6.830000E-8	1.193070E-2
6.835000E-8	1.196153E-2
6.840000E-8	1.198208E-2
6.845000E-8	1.200264E-2
6.850000E-8	1.201634E-2
6.855000E-8	1.197866E-2
6.860000E-8	1.192213E-2
6.865000E-8	1.188787E-2
6.870000E-8	1.185361E-2
6.875000E-8	1.177482E-2
6.880000E-8	1.169602E-2
6.885000E-8	1.166690E-2
6.890000E-8	1.163949E-2
6.895000E-8	1.156584E-2
6.900000E-8	1.148190E-2
6.905000E-8	1.138084E-2
6.910000E-8	1.123866E-2
6.915000E-8	1.108279E-2
6.920000E-8	1.092862E-2
6.925000E-8	1.076075E-2
6.930000E-8	1.059288E-2
6.935000E-8	1.045413E-2
6.940000E-8	1.029312E-2
6.945000E-8	1.020918E-2
6.950000E-8	1.018349E-2
6.955000E-8	1.018006E-2
6.960000E-8	1.023488E-2
6.965000E-8	1.035649E-2
6.970000E-8	1.048497E-2
6.975000E-8	1.061001E-2
6.980000E-8	1.074020E-2
6.985000E-8	1.082584E-2
6.990000E-8	1.089779E-2
6.995000E-8	1.092519E-2
7.000000E-8	1.092177E-2
7.005000E-8	1.089436E-2
7.010000E-8	1.085668E-2
7.015000E-8	1.079330E-2
7.020000E-8	1.072820E-2
7.025000E-8	1.070594E-2
7.030000E-8	1.070080E-2
7.035000E-8	1.068881E-2
7.040000E-8	1.074533E-2
7.045000E-8	1.085668E-2
7.050000E-8	1.097144E-2
7.055000E-8	1.111704E-2
7.060000E-8	1.127635E-2
7.065000E-8	1.143737E-2
7.070000E-8	1.157440E-2
7.075000E-8	1.168574E-2
7.080000E-8	1.173885E-2
7.085000E-8	1.174056E-2
7.090000E-8	1.173199E-2
7.095000E-8	1.166519E-2
7.100000E-8	1.155727E-2
7.105000E-8	1.142366E-2
7.110000E-8	1.124552E-2
7.115000E-8	1.107079E-2
7.120000E-8	1.087038E-2
7.125000E-8	1.070251E-2
7.130000E-8	1.054492E-2
7.135000E-8	1.039075E-2
7.140000E-8	1.028284E-2
7.145000E-8	1.021261E-2
7.150000E-8	1.019034E-2
7.155000E-8	1.021432E-2
7.160000E-8	1.029312E-2
7.165000E-8	1.039247E-2
7.170000E-8	1.050038E-2
7.175000E-8	1.057233E-2
7.180000E-8	1.064427E-2
7.185000E-8	1.071279E-2
7.190000E-8	1.073506E-2
7.195000E-8	1.076075E-2
7.200000E-8	1.073506E-2
7.205000E-8	1.068196E-2
7.210000E-8	1.057575E-2
7.215000E-8	1.045585E-2
7.220000E-8	1.035821E-2
7.225000E-8	1.028626E-2
7.230000E-8	1.020062E-2
7.235000E-8	1.012696E-2
7.240000E-8	1.008756E-2
7.245000E-8	1.009784E-2
7.250000E-8	1.009441E-2
7.255000E-8	1.012182E-2
7.260000E-8	1.018349E-2
7.265000E-8	1.022974E-2
7.270000E-8	1.027941E-2
7.275000E-8	1.034450E-2
7.280000E-8	1.036849E-2
7.285000E-8	1.037191E-2
7.290000E-8	1.036506E-2
7.295000E-8	1.031538E-2
7.300000E-8	1.027085E-2
7.305000E-8	1.023316E-2
7.310000E-8	1.024344E-2
7.315000E-8	1.027427E-2
7.320000E-8	1.029825E-2
7.325000E-8	1.034964E-2
7.330000E-8	1.042330E-2
7.335000E-8	1.050895E-2
7.340000E-8	1.060830E-2
7.345000E-8	1.072820E-2
7.350000E-8	1.084811E-2
7.355000E-8	1.096973E-2
7.360000E-8	1.109135E-2
7.365000E-8	1.121811E-2
7.370000E-8	1.136200E-2
7.375000E-8	1.146135E-2
7.380000E-8	1.151102E-2
7.385000E-8	1.153158E-2
7.390000E-8	1.150588E-2
7.395000E-8	1.146991E-2
7.400000E-8	1.136714E-2
7.405000E-8	1.115987E-2
7.410000E-8	1.095260E-2
7.415000E-8	1.075047E-2
7.420000E-8	1.053635E-2
7.425000E-8	1.036163E-2
7.430000E-8	1.020233E-2
7.435000E-8	1.004302E-2
7.440000E-8	9.911128E-3
7.445000E-8	9.810063E-3
7.450000E-8	9.750110E-3
7.455000E-8	9.729555E-3
7.460000E-8	9.720990E-3
7.465000E-8	9.720990E-3
7.470000E-8	9.722703E-3
7.475000E-8	9.734694E-3
7.480000E-8	9.714138E-3
7.485000E-8	9.693583E-3
7.490000E-8	9.693583E-3
7.495000E-8	9.686731E-3
7.500000E-8	9.702148E-3
7.505000E-8	9.727842E-3
7.510000E-8	9.791221E-3
7.515000E-8	9.859739E-3
7.520000E-8	9.947099E-3
7.525000E-8	1.005673E-2
7.530000E-8	1.016293E-2
7.535000E-8	1.023145E-2
7.540000E-8	1.026400E-2
7.545000E-8	1.024515E-2
7.550000E-8	1.019548E-2
7.555000E-8	1.013724E-2
7.560000E-8	1.007557E-2
7.565000E-8	9.983071E-3
7.570000E-8	9.909415E-3
7.575000E-8	9.791221E-3
7.580000E-8	9.731268E-3
7.585000E-8	9.693583E-3
7.590000E-8	9.679879E-3
7.595000E-8	9.664463E-3
7.600000E-8	9.650759E-3
7.605000E-8	9.683305E-3
7.610000E-8	9.681592E-3
7.615000E-8	9.750110E-3
7.620000E-8	9.792934E-3
7.625000E-8	9.890572E-3
7.630000E-8	9.962516E-3
7.635000E-8	1.000363E-2
7.640000E-8	1.004645E-2
7.645000E-8	1.001219E-2
7.650000E-8	9.991636E-3
7.655000E-8	9.880294E-3
7.660000E-8	9.794647E-3
7.665000E-8	9.698722E-3
7.670000E-8	9.585667E-3
7.675000E-8	9.457196E-3
7.680000E-8	9.328724E-3
7.685000E-8	9.224235E-3
7.690000E-8	9.171133E-3
7.695000E-8	9.152291E-3
7.700000E-8	9.145439E-3
7.705000E-8	9.126596E-3
7.710000E-8	9.154004E-3
7.715000E-8	9.231086E-3
7.720000E-8	9.291040E-3
7.725000E-8	9.354419E-3
7.730000E-8	9.380113E-3
7.735000E-8	9.388678E-3
7.740000E-8	9.364696E-3
7.745000E-8	9.333863E-3
7.750000E-8	9.258494E-3
7.755000E-8	9.159142E-3
7.760000E-8	9.059791E-3
7.765000E-8	8.950163E-3
7.770000E-8	8.833682E-3
7.775000E-8	8.730905E-3
7.780000E-8	8.631554E-3
7.785000E-8	8.575026E-3
7.790000E-8	8.573314E-3
7.795000E-8	8.573314E-3
7.800000E-8	8.605860E-3
7.805000E-8	8.614424E-3
7.810000E-8	8.679516E-3
7.815000E-8	8.780580E-3
7.820000E-8	8.854237E-3
7.825000E-8	8.926181E-3
7.830000E-8	8.980996E-3
7.835000E-8	9.028958E-3
7.840000E-8	9.097476E-3
7.845000E-8	9.167707E-3
7.850000E-8	9.243077E-3
7.855000E-8	9.294465E-3
7.860000E-8	9.347567E-3
7.865000E-8	9.380113E-3
7.870000E-8	9.392104E-3
7.875000E-8	9.407520E-3
7.880000E-8	9.426363E-3
7.885000E-8	9.426363E-3
7.890000E-8	9.414372E-3
7.895000E-8	9.392104E-3
7.900000E-8	9.390391E-3
7.905000E-8	9.349280E-3
7.910000E-8	9.294465E-3
7.915000E-8	9.210531E-3
7.920000E-8	9.148865E-3
7.925000E-8	9.075208E-3
7.930000E-8	9.051227E-3
7.935000E-8	9.037523E-3
7.940000E-8	8.987847E-3
7.945000E-8	8.998125E-3
7.950000E-8	9.006690E-3
7.955000E-8	9.020393E-3
7.960000E-8	9.054652E-3
7.965000E-8	9.104328E-3
7.970000E-8	9.145439E-3
7.975000E-8	9.184837E-3
7.980000E-8	9.203679E-3
7.985000E-8	9.224235E-3
7.990000E-8	9.277336E-3
7.995000E-8	9.294465E-3
8.000000E-8	9.294465E-3
8.005000E-8	9.321873E-3
8.010000E-8	9.315021E-3
8.015000E-8	9.277336E-3
8.020000E-8	9.253355E-3
8.025000E-8	9.229373E-3
8.030000E-8	9.229373E-3
8.035000E-8	9.253355E-3
8.040000E-8	9.282475E-3
8.045000E-8	9.303030E-3
8.050000E-8	9.347567E-3
8.055000E-8	9.402381E-3
8.060000E-8	9.410946E-3
8.065000E-8	9.402381E-3
8.070000E-8	9.349280E-3
8.075000E-8	9.294465E-3
8.080000E-8	9.224235E-3
8.085000E-8	9.152291E-3
8.090000E-8	9.088911E-3
8.095000E-8	8.977570E-3
8.100000E-8	8.861089E-3
8.105000E-8	8.737757E-3
8.110000E-8	8.653822E-3
8.115000E-8	8.604147E-3
8.120000E-8	8.563036E-3
8.125000E-8	8.523638E-3
8.130000E-8	8.544193E-3
8.135000E-8	8.573314E-3
8.140000E-8	8.634980E-3
8.145000E-8	8.730905E-3
8.150000E-8	8.821691E-3
8.155000E-8	8.893635E-3
8.160000E-8	8.955301E-3
8.165000E-8	9.046088E-3
8.170000E-8	9.133448E-3
8.175000E-8	9.191688E-3
8.180000E-8	9.284188E-3
8.185000E-8	9.339002E-3
8.190000E-8	9.364696E-3
8.195000E-8	9.349280E-3
8.200000E-8	9.308169E-3
8.205000E-8	9.203679E-3
8.210000E-8	9.054652E-3
8.215000E-8	8.855950E-3
8.220000E-8	8.640119E-3
8.225000E-8	8.422574E-3
8.230000E-8	8.205029E-3
8.235000E-8	7.997762E-3
8.240000E-8	7.848736E-3
8.245000E-8	7.744246E-3
8.250000E-8	7.677441E-3
8.255000E-8	7.732255E-3
8.260000E-8	7.835032E-3
8.265000E-8	8.009753E-3
8.270000E-8	8.217020E-3
8.275000E-8	8.473962E-3
8.280000E-8	8.679516E-3
8.285000E-8	8.867941E-3
8.290000E-8	8.967292E-3
8.295000E-8	8.996412E-3
8.300000E-8	8.939885E-3
8.305000E-8	8.855950E-3
8.310000E-8	8.744609E-3
8.315000E-8	8.593869E-3
8.320000E-8	8.472249E-3
8.325000E-8	8.376324E-3
8.330000E-8	8.319797E-3
8.335000E-8	8.333501E-3
8.340000E-8	8.378037E-3
8.345000E-8	8.417435E-3
8.350000E-8	8.496231E-3
8.355000E-8	8.595582E-3
8.360000E-8	8.681229E-3
8.365000E-8	8.742896E-3
8.370000E-8	8.782293E-3
8.375000E-8	8.811414E-3
8.380000E-8	8.823404E-3
8.385000E-8	8.825117E-3
8.390000E-8	8.825117E-3
8.395000E-8	8.766877E-3
8.400000E-8	8.706924E-3
8.405000E-8	8.653822E-3
8.410000E-8	8.587017E-3
8.415000E-8	8.499657E-3
8.420000E-8	8.444842E-3
8.425000E-8	8.376324E-3
8.430000E-8	8.295816E-3
8.435000E-8	8.217020E-3
8.440000E-8	8.177622E-3
8.445000E-8	8.155354E-3
8.450000E-8	8.146789E-3
8.455000E-8	8.160493E-3
8.460000E-8	8.179335E-3
8.465000E-8	8.206742E-3
8.470000E-8	8.203316E-3
8.475000E-8	8.177622E-3
8.480000E-8	8.157067E-3
8.485000E-8	8.145076E-3
8.490000E-8	8.136511E-3
8.495000E-8	8.134798E-3
8.500000E-8	8.136511E-3
8.505000E-8	8.119382E-3
8.510000E-8	8.110817E-3
8.515000E-8	8.107391E-3
8.520000E-8	8.083410E-3
8.525000E-8	8.091975E-3
8.530000E-8	8.091975E-3
8.535000E-8	8.074845E-3
8.540000E-8	8.074845E-3
8.545000E-8	8.062854E-3
8.550000E-8	8.040586E-3
8.555000E-8	7.984059E-3
8.560000E-8	7.939522E-3
8.565000E-8	7.910402E-3
8.570000E-8	7.884708E-3
8.575000E-8	7.860726E-3
8.580000E-8	7.805912E-3
8.585000E-8	7.778505E-3
8.590000E-8	7.752810E-3
8.595000E-8	7.747672E-3
8.600000E-8	7.732255E-3
8.605000E-8	7.704848E-3
8.610000E-8	7.737394E-3
8.615000E-8	7.780218E-3
8.620000E-8	7.841884E-3
8.625000E-8	7.929244E-3
8.630000E-8	8.044012E-3
8.635000E-8	8.124521E-3
8.640000E-8	8.181048E-3
8.645000E-8	8.220446E-3
8.650000E-8	8.297529E-3
8.655000E-8	8.328362E-3
8.660000E-8	8.318084E-3
8.665000E-8	8.294103E-3
8.670000E-8	8.218733E-3
8.675000E-8	8.139937E-3
8.680000E-8	8.057716E-3
8.685000E-8	7.992623E-3
8.690000E-8	7.925818E-3
8.695000E-8	7.874430E-3
8.700000E-8	7.800773E-3
8.705000E-8	7.785357E-3
8.710000E-8	7.816190E-3
8.715000E-8	7.802486E-3
8.720000E-8	7.817903E-3
8.725000E-8	7.833319E-3
8.730000E-8	7.809338E-3
8.735000E-8	7.792208E-3
8.740000E-8	7.752810E-3
8.745000E-8	7.697996E-3
8.750000E-8	7.644895E-3
8.755000E-8	7.576377E-3
8.760000E-8	7.485590E-3
8.765000E-8	7.423924E-3
8.770000E-8	7.341702E-3
8.775000E-8	7.312582E-3
8.780000E-8	7.346841E-3
8.785000E-8	7.386239E-3
8.790000E-8	7.415359E-3
8.795000E-8	7.444479E-3
8.800000E-8	7.466748E-3
8.805000E-8	7.461609E-3
8.810000E-8	7.442766E-3
8.815000E-8	7.396517E-3
8.820000E-8	7.329712E-3
8.825000E-8	7.261194E-3
8.830000E-8	7.214944E-3
8.835000E-8	7.175546E-3
8.840000E-8	7.166982E-3
8.845000E-8	7.204666E-3
8.850000E-8	7.250916E-3
8.855000E-8	7.300592E-3
8.860000E-8	7.386239E-3
8.865000E-8	7.489016E-3
8.870000E-8	7.557534E-3
8.875000E-8	7.646608E-3
8.880000E-8	7.689431E-3
8.885000E-8	7.687718E-3
8.890000E-8	7.686005E-3
8.895000E-8	7.677441E-3
8.900000E-8	7.636330E-3
8.905000E-8	7.596932E-3
8.910000E-8	7.583228E-3
8.915000E-8	7.542118E-3
8.920000E-8	7.530127E-3
8.925000E-8	7.530127E-3
8.930000E-8	7.554108E-3
8.935000E-8	7.603784E-3
8.940000E-8	7.648320E-3
8.945000E-8	7.691144E-3
8.950000E-8	7.727116E-3
8.955000E-8	7.735681E-3
8.960000E-8	7.739107E-3
8.965000E-8	7.749385E-3
8.970000E-8	7.737394E-3
8.975000E-8	7.720264E-3
8.980000E-8	7.699709E-3
8.985000E-8	7.668876E-3
8.990000E-8	7.612349E-3
8.995000E-8	7.538692E-3
9.000000E-8	7.461609E-3
9.005000E-8	7.410220E-3
9.010000E-8	7.377674E-3
9.015000E-8	7.331425E-3
9.020000E-8	7.314295E-3
9.025000E-8	7.285175E-3
9.030000E-8	7.268046E-3
9.035000E-8	7.278323E-3
9.040000E-8	7.314295E-3
9.045000E-8	7.358832E-3
9.050000E-8	7.439341E-3
9.055000E-8	7.559247E-3
9.060000E-8	7.627765E-3
9.065000E-8	7.727116E-3
9.070000E-8	7.793921E-3
9.075000E-8	7.821328E-3
9.080000E-8	7.817903E-3
9.085000E-8	7.730542E-3
9.090000E-8	7.603784E-3
9.095000E-8	7.454757E-3
9.100000E-8	7.317721E-3
9.105000E-8	7.168694E-3
9.110000E-8	7.035084E-3
9.115000E-8	6.930594E-3
9.120000E-8	6.879206E-3
9.125000E-8	6.882632E-3
9.130000E-8	6.925456E-3
9.135000E-8	6.978557E-3
9.140000E-8	7.033371E-3
9.145000E-8	7.112167E-3
9.150000E-8	7.170407E-3
9.155000E-8	7.240638E-3
9.160000E-8	7.259481E-3
9.165000E-8	7.242351E-3
9.170000E-8	7.173833E-3
9.175000E-8	7.098464E-3
9.180000E-8	7.033371E-3
9.185000E-8	6.975131E-3
9.190000E-8	6.880919E-3
9.195000E-8	6.853512E-3
9.200000E-8	6.899761E-3
9.205000E-8	7.014529E-3
9.210000E-8	7.175546E-3
9.215000E-8	7.374248E-3
9.220000E-8	7.584941E-3
9.225000E-8	7.764801E-3
9.230000E-8	7.953226E-3
9.235000E-8	8.073132E-3
9.240000E-8	8.148502E-3
9.245000E-8	8.129659E-3
9.250000E-8	8.050864E-3
9.255000E-8	7.920680E-3
9.260000E-8	7.747672E-3
9.265000E-8	7.545543E-3
9.270000E-8	7.372536E-3
9.275000E-8	7.206379E-3
9.280000E-8	7.084760E-3
9.285000E-8	7.004251E-3
9.290000E-8	6.910039E-3
9.295000E-8	6.880919E-3
9.300000E-8	6.877493E-3
9.305000E-8	6.892910E-3
9.310000E-8	6.886058E-3
9.315000E-8	6.884345E-3
9.320000E-8	6.880919E-3
9.325000E-8	6.855225E-3
9.330000E-8	6.843234E-3
9.335000E-8	6.822679E-3
9.340000E-8	6.808975E-3
9.345000E-8	6.771290E-3
9.350000E-8	6.754161E-3
9.355000E-8	6.726753E-3
9.360000E-8	6.737031E-3
9.365000E-8	6.781568E-3
9.370000E-8	6.814114E-3
9.375000E-8	6.882632E-3
9.380000E-8	6.927169E-3
9.385000E-8	6.980270E-3
9.390000E-8	7.060779E-3
9.395000E-8	7.101889E-3
9.400000E-8	7.149852E-3
9.405000E-8	7.173833E-3
9.410000E-8	7.175546E-3
9.415000E-8	7.148139E-3
9.420000E-8	7.112167E-3
9.425000E-8	7.043649E-3
9.430000E-8	6.997399E-3
9.435000E-8	6.942585E-3
9.440000E-8	6.875780E-3
9.445000E-8	6.848373E-3
9.450000E-8	6.810688E-3
9.455000E-8	6.779855E-3
9.460000E-8	6.750735E-3
9.465000E-8	6.740457E-3
9.470000E-8	6.759299E-3
9.475000E-8	6.764438E-3
9.480000E-8	6.755874E-3
9.485000E-8	6.766151E-3
9.490000E-8	6.795271E-3
9.495000E-8	6.790133E-3
9.500000E-8	6.784994E-3
9.505000E-8	6.793558E-3
9.510000E-8	6.784994E-3
9.515000E-8	6.755874E-3
9.520000E-8	6.738744E-3
9.525000E-8	6.731892E-3
9.530000E-8	6.728466E-3
9.535000E-8	6.740457E-3
9.540000E-8	6.783281E-3
9.545000E-8	6.831243E-3
9.550000E-8	6.903187E-3
9.555000E-8	6.969992E-3
9.560000E-8	7.019668E-3
9.565000E-8	7.050501E-3
9.570000E-8	7.048788E-3
9.575000E-8	7.041936E-3
9.580000E-8	6.993974E-3
9.585000E-8	6.906613E-3
9.590000E-8	6.819253E-3
9.595000E-8	6.718189E-3
9.600000E-8	6.603421E-3
9.605000E-8	6.516061E-3
9.610000E-8	6.430413E-3
9.615000E-8	6.375599E-3
9.620000E-8	6.368747E-3
9.625000E-8	6.420135E-3
9.630000E-8	6.507496E-3
9.635000E-8	6.582866E-3
9.640000E-8	6.665087E-3
9.645000E-8	6.786707E-3
9.650000E-8	6.915178E-3
9.655000E-8	7.014529E-3
9.660000E-8	7.101889E-3
9.665000E-8	7.165269E-3
9.670000E-8	7.196102E-3
9.675000E-8	7.206379E-3
9.680000E-8	7.161843E-3
9.685000E-8	7.101889E-3
9.690000E-8	7.023094E-3
9.695000E-8	6.916891E-3
9.700000E-8	6.796984E-3
9.705000E-8	6.713050E-3
9.710000E-8	6.647958E-3
9.715000E-8	6.572588E-3
9.720000E-8	6.533190E-3
9.725000E-8	6.531477E-3
9.730000E-8	6.550320E-3
9.735000E-8	6.577727E-3
9.740000E-8	6.666800E-3
9.745000E-8	6.730179E-3
9.750000E-8	6.793558E-3
9.755000E-8	6.803836E-3
9.760000E-8	6.824392E-3
9.765000E-8	6.814114E-3
9.770000E-8	6.795271E-3
9.775000E-8	6.755874E-3
9.780000E-8	6.694207E-3
9.785000E-8	6.623976E-3
9.790000E-8	6.548607E-3
9.795000E-8	6.476663E-3
9.800000E-8	6.406432E-3
9.805000E-8	6.349904E-3
9.810000E-8	6.288238E-3
9.815000E-8	6.252266E-3
9.820000E-8	6.216294E-3
9.825000E-8	6.168332E-3
9.830000E-8	6.137499E-3
9.835000E-8	6.142637E-3
9.840000E-8	6.123795E-3
9.845000E-8	6.128934E-3
9.850000E-8	6.108378E-3
9.855000E-8	6.075832E-3
9.860000E-8	6.039860E-3
9.865000E-8	6.038147E-3
9.870000E-8	6.051851E-3
9.875000E-8	6.043286E-3
9.880000E-8	6.043286E-3
9.885000E-8	6.050138E-3
9.890000E-8	6.044999E-3
9.895000E-8	6.012453E-3
9.900000E-8	5.995324E-3
9.905000E-8	5.957639E-3
9.910000E-8	5.955926E-3
9.915000E-8	5.928519E-3
9.920000E-8	5.930232E-3
9.925000E-8	5.940509E-3
9.930000E-8	5.945648E-3
9.935000E-8	6.005601E-3
9.940000E-8	6.063842E-3
9.945000E-8	6.149489E-3
9.950000E-8	6.245414E-3
9.955000E-8	6.356756E-3
9.960000E-8	6.408145E-3
9.965000E-8	6.437265E-3
9.970000E-8	6.428700E-3
9.975000E-8	6.403006E-3
9.980000E-8	6.349904E-3
9.985000E-8	6.262544E-3
9.990000E-8	6.159767E-3
9.995000E-8	6.075832E-3
1.000000E-7	6.010740E-3
1.000500E-7	5.964491E-3
1.001000E-7	5.957639E-3
1.001500E-7	6.010740E-3
1.002000E-7	6.077545E-3
1.002500E-7	6.149489E-3
1.003000E-7	6.255692E-3
1.003500E-7	6.349904E-3
1.004000E-7	6.418422E-3
1.004500E-7	6.468098E-3
1.005000E-7	6.456107E-3
1.005500E-7	6.409858E-3
1.006000E-7	6.337914E-3
1.006500E-7	6.223146E-3
1.007000E-7	6.110091E-3
1.007500E-7	5.964491E-3
1.008000E-7	5.830880E-3
1.008500E-7	5.717826E-3
1.009000E-7	5.640743E-3
1.009500E-7	5.567086E-3
1.010000E-7	5.546531E-3
1.010500E-7	5.555096E-3
1.011000E-7	5.587642E-3
1.011500E-7	5.692132E-3
1.012000E-7	5.781205E-3
1.012500E-7	5.887408E-3
1.013000E-7	5.985046E-3
1.013500E-7	6.051851E-3
1.014000E-7	6.110091E-3
1.014500E-7	6.128934E-3
1.015000E-7	6.159767E-3
1.015500E-7	6.188887E-3
1.016000E-7	6.228285E-3
1.016500E-7	6.247127E-3
1.017000E-7	6.238563E-3
1.017500E-7	6.240276E-3
1.018000E-7	6.252266E-3
1.018500E-7	6.252266E-3
1.019000E-7	6.271109E-3
1.019500E-7	6.277960E-3
1.020000E-7	6.260831E-3
1.020500E-7	6.257405E-3
1.021000E-7	6.229998E-3
1.021500E-7	6.207730E-3
1.022000E-7	6.135786E-3
1.022500E-7	6.092962E-3
1.023000E-7	6.086110E-3
1.023500E-7	6.086110E-3
1.024000E-7	6.094675E-3
1.024500E-7	6.103240E-3
1.025000E-7	6.118656E-3
1.025500E-7	6.188887E-3
1.026000E-7	6.241989E-3
1.026500E-7	6.281386E-3
1.027000E-7	6.284812E-3
1.027500E-7	6.303655E-3
1.028000E-7	6.303655E-3
1.028500E-7	6.298516E-3
1.029000E-7	6.267683E-3
1.029500E-7	6.221433E-3
1.030000E-7	6.178609E-3
1.030500E-7	6.108378E-3
1.031000E-7	6.072406E-3
1.031500E-7	6.033009E-3
1.032000E-7	6.014166E-3
1.032500E-7	5.966204E-3
1.033000E-7	5.937083E-3
1.033500E-7	5.918241E-3
1.034000E-7	5.899398E-3
1.034500E-7	5.824029E-3
1.035000E-7	5.760650E-3
1.035500E-7	5.681854E-3
1.036000E-7	5.613336E-3
1.036500E-7	5.573938E-3
1.037000E-7	5.546531E-3
1.037500E-7	5.517411E-3
1.038000E-7	5.524262E-3
1.038500E-7	5.560234E-3
1.039000E-7	5.623614E-3
1.039500E-7	5.724678E-3
1.040000E-7	5.789770E-3
1.040500E-7	5.861714E-3
1.041000E-7	5.928519E-3
1.041500E-7	5.961065E-3
1.042000E-7	5.949074E-3
1.042500E-7	5.909676E-3
1.043000E-7	5.853149E-3
1.043500E-7	5.770927E-3
1.044000E-7	5.666437E-3
1.044500E-7	5.555096E-3
1.045000E-7	5.472874E-3
1.045500E-7	5.430050E-3
1.046000E-7	5.349542E-3
1.046500E-7	5.342690E-3
1.047000E-7	5.344403E-3
1.047500E-7	5.392365E-3
1.048000E-7	5.436902E-3
1.048500E-7	5.548244E-3
1.049000E-7	5.644169E-3
1.049500E-7	5.733242E-3
1.050000E-7	5.842871E-3
1.050500E-7	5.926806E-3
1.051000E-7	5.973055E-3
1.051500E-7	6.010740E-3
1.052000E-7	5.997037E-3
1.052500E-7	5.950787E-3
1.053000E-7	5.887408E-3
1.053500E-7	5.803473E-3
1.054000E-7	5.731529E-3
1.054500E-7	5.654447E-3
1.055000E-7	5.582503E-3
1.055500E-7	5.483152E-3
1.056000E-7	5.450606E-3
1.056500E-7	5.443754E-3
1.057000E-7	5.507133E-3
1.057500E-7	5.582503E-3
1.058000E-7	5.669863E-3
1.058500E-7	5.738381E-3
1.059000E-7	5.796621E-3
1.059500E-7	5.805186E-3
1.060000E-7	5.829168E-3
1.060500E-7	5.798334E-3
1.061000E-7	5.748659E-3
1.061500E-7	5.690419E-3
1.062000E-7	5.608197E-3
1.062500E-7	5.522549E-3
1.063000E-7	5.412921E-3
1.063500E-7	5.332412E-3
1.064000E-7	5.241626E-3
1.064500E-7	5.174821E-3
1.065000E-7	5.150839E-3
1.065500E-7	5.138849E-3
1.066000E-7	5.111441E-3
1.066500E-7	5.173108E-3
1.067000E-7	5.241626E-3
1.067500E-7	5.339264E-3
1.068000E-7	5.407782E-3
1.068500E-7	5.488290E-3
1.069000E-7	5.532827E-3
1.069500E-7	5.592780E-3
1.070000E-7	5.623614E-3
1.070500E-7	5.639030E-3
1.071000E-7	5.627039E-3
1.071500E-7	5.597919E-3
1.072000E-7	5.560234E-3
1.072500E-7	5.531114E-3
1.073000E-7	5.503707E-3
1.073500E-7	5.412921E-3
1.074000E-7	5.346116E-3
1.074500E-7	5.282736E-3
1.075000E-7	5.209080E-3
1.075500E-7	5.118293E-3
1.076000E-7	5.022368E-3
1.076500E-7	4.955563E-3
1.077000E-7	4.883619E-3
1.077500E-7	4.816814E-3
1.078000E-7	4.779129E-3
1.078500E-7	4.724315E-3
1.079000E-7	4.664362E-3
1.079500E-7	4.642093E-3
1.080000E-7	4.652371E-3
1.080500E-7	4.702046E-3
1.081000E-7	4.789407E-3
1.081500E-7	4.921304E-3
1.082000E-7	5.020655E-3
1.082500E-7	5.128571E-3
1.083000E-7	5.255329E-3
1.083500E-7	5.359819E-3
1.084000E-7	5.380375E-3
1.084500E-7	5.412921E-3
1.085000E-7	5.400930E-3
1.085500E-7	5.392365E-3
1.086000E-7	5.373523E-3
1.086500E-7	5.334125E-3
1.087000E-7	5.320421E-3
1.087500E-7	5.258755E-3
1.088000E-7	5.219357E-3
1.088500E-7	5.198802E-3
1.089000E-7	5.200515E-3
1.089500E-7	5.226209E-3
1.090000E-7	5.257042E-3
1.090500E-7	5.294727E-3
1.091000E-7	5.310144E-3
1.091500E-7	5.363245E-3
1.092000E-7	5.387226E-3
1.092500E-7	5.371810E-3
1.093000E-7	5.337551E-3
1.093500E-7	5.291301E-3
1.094000E-7	5.214218E-3
1.094500E-7	5.140562E-3
1.095000E-7	5.049775E-3
1.095500E-7	4.972693E-3
1.096000E-7	4.936721E-3
1.096500E-7	4.881906E-3
1.097000E-7	4.849360E-3
1.097500E-7	4.787694E-3
1.098000E-7	4.756861E-3
1.098500E-7	4.681491E-3
1.099000E-7	4.662649E-3
1.099500E-7	4.669500E-3
1.100000E-7	4.686630E-3
1.100500E-7	4.707185E-3
1.101000E-7	4.751722E-3
1.101500E-7	4.792833E-3
1.102000E-7	4.833944E-3
1.102500E-7	4.878480E-3
1.103000E-7	4.960702E-3
1.103500E-7	5.015516E-3
1.104000E-7	5.061766E-3
1.104500E-7	5.120006E-3
1.105000E-7	5.161117E-3
1.105500E-7	5.178247E-3
1.106000E-7	5.197089E-3
1.106500E-7	5.226209E-3
1.107000E-7	5.226209E-3
1.107500E-7	5.219357E-3
1.108000E-7	5.229635E-3
1.108500E-7	5.215931E-3
1.109000E-7	5.197089E-3
1.109500E-7	5.171395E-3
1.110000E-7	5.154265E-3
1.110500E-7	5.137136E-3
1.111000E-7	5.080608E-3
1.111500E-7	5.037785E-3
1.112000E-7	4.986396E-3
1.112500E-7	4.946998E-3
1.113000E-7	4.911026E-3
1.113500E-7	4.871628E-3
1.114000E-7	4.852786E-3
1.114500E-7	4.868203E-3
1.115000E-7	4.917878E-3
1.115500E-7	4.933295E-3
1.116000E-7	4.923017E-3
1.116500E-7	4.905887E-3
1.117000E-7	4.871628E-3
1.117500E-7	4.823666E-3
1.118000E-7	4.815101E-3
1.118500E-7	4.820240E-3
1.119000E-7	4.832231E-3
1.119500E-7	4.854499E-3
1.120000E-7	4.892184E-3
1.120500E-7	4.953850E-3
1.121000E-7	5.054914E-3
1.121500E-7	5.164543E-3
1.122000E-7	5.277598E-3
1.122500E-7	5.418060E-3
1.123000E-7	5.534540E-3
1.123500E-7	5.639030E-3
1.124000E-7	5.698983E-3
1.124500E-7	5.757224E-3
1.125000E-7	5.745233E-3
1.125500E-7	5.736668E-3
1.126000E-7	5.716113E-3
1.126500E-7	5.661298E-3
1.127000E-7	5.582503E-3
1.127500E-7	5.522549E-3
1.128000E-7	5.459170E-3
1.128500E-7	5.392365E-3
1.129000E-7	5.323847E-3
1.129500E-7	5.267320E-3
1.130000E-7	5.265607E-3
1.130500E-7	5.234774E-3
1.131000E-7	5.226209E-3
1.131500E-7	5.209080E-3
1.132000E-7	5.233061E-3
1.132500E-7	5.274172E-3
1.133000E-7	5.323847E-3
1.133500E-7	5.375236E-3
1.134000E-7	5.382088E-3
1.134500E-7	5.349542E-3
1.135000E-7	5.380375E-3
1.135500E-7	5.368384E-3
1.136000E-7	5.330699E-3
1.136500E-7	5.245052E-3
1.137000E-7	5.183385E-3
1.137500E-7	5.123432E-3
1.138000E-7	5.066905E-3
1.138500E-7	5.039498E-3
1.139000E-7	5.030933E-3
1.139500E-7	5.030933E-3
1.140000E-7	5.039498E-3
1.140500E-7	5.078895E-3
1.141000E-7	5.145700E-3
1.141500E-7	5.214218E-3
1.142000E-7	5.299866E-3
1.142500E-7	5.397504E-3
1.143000E-7	5.447180E-3
1.143500E-7	5.493429E-3
1.144000E-7	5.474587E-3
1.144500E-7	5.472874E-3
1.145000E-7	5.447180E-3
1.145500E-7	5.371810E-3
1.146000E-7	5.281024E-3
1.146500E-7	5.193663E-3
1.147000E-7	5.063479E-3
1.147500E-7	4.926443E-3
1.148000E-7	4.770564E-3
1.148500E-7	4.604408E-3
1.149000E-7	4.453669E-3
1.149500E-7	4.342327E-3
1.150000E-7	4.292651E-3
1.150500E-7	4.290938E-3
1.151000E-7	4.316633E-3
1.151500E-7	4.337188E-3
1.152000E-7	4.402280E-3
1.152500E-7	4.517048E-3
1.153000E-7	4.618112E-3
1.153500E-7	4.765426E-3
1.154000E-7	4.881906E-3
1.154500E-7	4.991535E-3
1.155000E-7	5.106303E-3
1.155500E-7	5.229635E-3
1.156000E-7	5.293014E-3
1.156500E-7	5.340977E-3
1.157000E-7	5.382088E-3
1.157500E-7	5.346116E-3
1.158000E-7	5.298153E-3
1.158500E-7	5.226209E-3
1.159000E-7	5.142275E-3
1.159500E-7	5.032646E-3
1.160000E-7	4.923017E-3
1.160500E-7	4.787694E-3
1.161000E-7	4.669500E-3
1.161500E-7	4.594131E-3
1.162000E-7	4.546168E-3
1.162500E-7	4.510196E-3
1.163000E-7	4.494779E-3
1.163500E-7	4.477650E-3
1.164000E-7	4.482789E-3
1.164500E-7	4.489641E-3
1.165000E-7	4.421123E-3
1.165500E-7	4.385151E-3
1.166000E-7	4.282374E-3
1.166500E-7	4.181310E-3
1.167000E-7	4.093949E-3
1.167500E-7	4.006589E-3
1.168000E-7	3.948348E-3
1.168500E-7	3.943210E-3
1.169000E-7	4.010015E-3
1.169500E-7	4.088810E-3
1.170000E-7	4.236124E-3
1.170500E-7	4.407419E-3
1.171000E-7	4.590705E-3
1.171500E-7	4.780842E-3
1.172000E-7	4.938434E-3
1.172500E-7	5.037785E-3
1.173000E-7	5.075470E-3
1.173500E-7	5.012090E-3
1.174000E-7	4.881906E-3
1.174500E-7	4.712324E-3
1.175000E-7	4.501631E-3
1.175500E-7	4.266957E-3
1.176000E-7	4.015153E-3
1.176500E-7	3.843858E-3
1.177000E-7	3.754785E-3
1.177500E-7	3.684554E-3
1.178000E-7	3.677702E-3
1.178500E-7	3.720526E-3
1.179000E-7	3.802748E-3
1.179500E-7	3.908951E-3
1.180000E-7	4.013440E-3
1.180500E-7	4.105940E-3
1.181000E-7	4.177884E-3
1.181500E-7	4.253253E-3
1.182000E-7	4.265244E-3
1.182500E-7	4.239550E-3
1.183000E-7	4.167606E-3
1.183500E-7	4.114505E-3
1.184000E-7	4.083671E-3
1.184500E-7	4.059690E-3
1.185000E-7	4.011728E-3
1.185500E-7	4.010015E-3
1.186000E-7	4.037422E-3
1.186500E-7	4.045987E-3
1.187000E-7	4.093949E-3
1.187500E-7	4.123069E-3
1.188000E-7	4.131634E-3
1.188500E-7	4.136773E-3
1.189000E-7	4.128208E-3
1.189500E-7	4.088810E-3
1.190000E-7	4.083671E-3
1.190500E-7	4.078533E-3
1.191000E-7	4.080246E-3
1.191500E-7	4.104227E-3
1.192000E-7	4.105940E-3
1.192500E-7	4.119643E-3
1.193000E-7	4.164180E-3
1.193500E-7	4.213856E-3
1.194000E-7	4.294364E-3
1.194500E-7	4.368021E-3
1.195000E-7	4.417697E-3
1.195500E-7	4.429687E-3
1.196000E-7	4.392002E-3
1.196500E-7	4.326910E-3
1.197000E-7	4.224133E-3
1.197500E-7	4.131634E-3
1.198000E-7	4.040848E-3
1.198500E-7	3.941497E-3
1.199000E-7	3.859275E-3
1.199500E-7	3.816451E-3
1.200000E-7	3.770202E-3
1.200500E-7	3.756498E-3
1.201000E-7	3.775340E-3
1.201500E-7	3.823303E-3
1.202000E-7	3.872979E-3
1.202500E-7	3.924367E-3
1.203000E-7	4.003163E-3
1.203500E-7	4.039135E-3
1.204000E-7	4.056264E-3
1.204500E-7	4.042561E-3
1.205000E-7	4.006589E-3
1.205500E-7	3.951774E-3
1.206000E-7	3.884969E-3
1.206500E-7	3.831868E-3
1.207000E-7	3.807886E-3
1.207500E-7	3.763350E-3
1.208000E-7	3.734230E-3
1.208500E-7	3.691406E-3
1.209000E-7	3.706822E-3
1.209500E-7	3.739368E-3
1.210000E-7	3.821590E-3
1.210500E-7	3.874692E-3
1.211000E-7	3.915802E-3
1.211500E-7	3.963765E-3
1.212000E-7	4.008302E-3
1.212500E-7	4.040848E-3
1.213000E-7	4.097375E-3
1.213500E-7	4.128208E-3
1.214000E-7	4.128208E-3
1.214500E-7	4.147051E-3
1.215000E-7	4.167606E-3
1.215500E-7	4.172745E-3
1.216000E-7	4.117930E-3
1.216500E-7	4.085384E-3
1.217000E-7	4.054551E-3
1.217500E-7	3.984320E-3
1.218000E-7	3.929506E-3
1.218500E-7	3.907238E-3
1.219000E-7	3.919228E-3
1.219500E-7	3.917515E-3
1.220000E-7	3.975756E-3
1.220500E-7	4.049412E-3
1.221000E-7	4.162467E-3
1.221500E-7	4.270383E-3
1.222000E-7	4.412558E-3
1.222500E-7	4.522187E-3
1.223000E-7	4.635241E-3
1.223500E-7	4.693482E-3
1.224000E-7	4.734592E-3
1.224500E-7	4.719176E-3
1.225000E-7	4.630103E-3
1.225500E-7	4.525613E-3
1.226000E-7	4.383438E-3
1.226500E-7	4.225846E-3
1.227000E-7	4.039135E-3
1.227500E-7	3.900386E-3
1.228000E-7	3.802748E-3
1.228500E-7	3.765063E-3
1.229000E-7	3.717100E-3
1.229500E-7	3.749646E-3
1.230000E-7	3.825016E-3
1.230500E-7	3.932932E-3
1.231000E-7	4.057977E-3
1.231500E-7	4.145338E-3
1.232000E-7	4.256679E-3
1.232500E-7	4.338901E-3
1.233000E-7	4.398854E-3
1.233500E-7	4.398854E-3
1.234000E-7	4.400567E-3
1.234500E-7	4.403993E-3
1.235000E-7	4.378299E-3
1.235500E-7	4.301216E-3
1.236000E-7	4.227559E-3
1.236500E-7	4.136773E-3
1.237000E-7	4.059690E-3
1.237500E-7	4.022005E-3
1.238000E-7	3.994598E-3
1.238500E-7	3.984320E-3
1.239000E-7	3.972330E-3
1.239500E-7	3.979181E-3
1.240000E-7	3.965478E-3
1.240500E-7	3.951774E-3
1.241000E-7	3.934645E-3
1.241500E-7	3.917515E-3
1.242000E-7	3.879830E-3
1.242500E-7	3.831868E-3
1.243000E-7	3.797609E-3
1.243500E-7	3.720526E-3
1.244000E-7	3.663999E-3
1.244500E-7	3.593768E-3
1.245000E-7	3.538953E-3
1.245500E-7	3.496130E-3
1.246000E-7	3.504694E-3
1.246500E-7	3.550944E-3
1.247000E-7	3.576638E-3
1.247500E-7	3.614323E-3
1.248000E-7	3.682841E-3
1.248500E-7	3.766776E-3
1.249000E-7	3.831868E-3
1.249500E-7	3.872979E-3
1.250000E-7	3.886682E-3
1.250500E-7	3.893534E-3
1.251000E-7	3.866127E-3
1.251500E-7	3.819877E-3
1.252000E-7	3.763350E-3
1.252500E-7	3.698258E-3
1.253000E-7	3.629740E-3
1.253500E-7	3.581777E-3
1.254000E-7	3.544092E-3
1.254500E-7	3.526963E-3
1.255000E-7	3.549231E-3
1.255500E-7	3.592055E-3
1.256000E-7	3.665712E-3
1.256500E-7	3.747933E-3
1.257000E-7	3.835294E-3
1.257500E-7	3.907238E-3
1.258000E-7	3.987746E-3
1.258500E-7	4.092236E-3
1.259000E-7	4.215569E-3
1.259500E-7	4.306355E-3
1.260000E-7	4.350892E-3
1.260500E-7	4.386864E-3
1.261000E-7	4.393715E-3
1.261500E-7	4.393715E-3
1.262000E-7	4.354318E-3
1.262500E-7	4.275522E-3
1.263000E-7	4.203578E-3
1.263500E-7	4.135060E-3
1.264000E-7	4.056264E-3
1.264500E-7	4.001450E-3
1.265000E-7	3.943210E-3
1.265500E-7	3.871266E-3
1.266000E-7	3.833581E-3
1.266500E-7	3.818164E-3
1.267000E-7	3.799322E-3
1.267500E-7	3.801035E-3
1.268000E-7	3.761637E-3
1.268500E-7	3.746220E-3
1.269000E-7	3.703397E-3
1.269500E-7	3.628027E-3
1.270000E-7	3.573212E-3
1.270500E-7	3.492704E-3
1.271000E-7	3.398491E-3
1.271500E-7	3.343677E-3
1.272000E-7	3.317983E-3
1.272500E-7	3.290576E-3
1.273000E-7	3.252891E-3
1.273500E-7	3.254604E-3
1.274000E-7	3.234048E-3
1.274500E-7	3.270020E-3
1.275000E-7	3.316270E-3
1.275500E-7	3.331686E-3
1.276000E-7	3.353955E-3
1.276500E-7	3.400204E-3
1.277000E-7	3.432750E-3
1.277500E-7	3.455019E-3
1.278000E-7	3.458445E-3
1.278500E-7	3.485852E-3
1.279000E-7	3.509833E-3
1.279500E-7	3.566361E-3
1.280000E-7	3.638304E-3
1.280500E-7	3.701684E-3
1.281000E-7	3.814738E-3
1.281500E-7	3.936358E-3
1.282000E-7	4.056264E-3
1.282500E-7	4.171032E-3
1.283000E-7	4.292651E-3
1.283500E-7	4.374873E-3
1.284000E-7	4.410845E-3
1.284500E-7	4.390289E-3
1.285000E-7	4.314920E-3
1.285500E-7	4.183023E-3
1.286000E-7	4.010015E-3
1.286500E-7	3.855849E-3
1.287000E-7	3.694832E-3
1.287500E-7	3.578351E-3
1.288000E-7	3.479000E-3
1.288500E-7	3.470435E-3
1.289000E-7	3.482426E-3
1.289500E-7	3.479000E-3
1.290000E-7	3.540666E-3
1.290500E-7	3.622888E-3
1.291000E-7	3.722239E-3
1.291500E-7	3.797609E-3
1.292000E-7	3.855849E-3
1.292500E-7	3.881543E-3
1.293000E-7	3.871266E-3
1.293500E-7	3.804461E-3
1.294000E-7	3.718813E-3
1.294500E-7	3.645156E-3
1.295000E-7	3.521824E-3
1.295500E-7	3.419047E-3
1.296000E-7	3.360807E-3
1.296500E-7	3.321409E-3
1.297000E-7	3.347103E-3
1.297500E-7	3.407056E-3
1.298000E-7	3.497843E-3
1.298500E-7	3.585203E-3
1.299000E-7	3.670850E-3
1.299500E-7	3.763350E-3
1.300000E-7	3.833581E-3
1.300500E-7	3.886682E-3
1.301000E-7	3.874692E-3
1.301500E-7	3.840433E-3
1.302000E-7	3.766776E-3
1.302500E-7	3.663999E-3
1.303000E-7	3.552657E-3
1.303500E-7	3.443028E-3
1.304000E-7	3.347103E-3
1.304500E-7	3.283724E-3
1.305000E-7	3.235761E-3
1.305500E-7	3.244326E-3
1.306000E-7	3.278585E-3
1.306500E-7	3.365945E-3
1.307000E-7	3.497843E-3
1.307500E-7	3.598907E-3
1.308000E-7	3.681128E-3
1.308500E-7	3.744507E-3
1.309000E-7	3.770202E-3
1.309500E-7	3.782192E-3
1.310000E-7	3.783905E-3
1.310500E-7	3.747933E-3
1.311000E-7	3.717100E-3
1.311500E-7	3.705109E-3
1.312000E-7	3.699971E-3
1.312500E-7	3.746220E-3
1.313000E-7	3.814738E-3
1.313500E-7	3.845571E-3
1.314000E-7	3.895247E-3
1.314500E-7	3.975756E-3
1.315000E-7	4.056264E-3
1.315500E-7	4.104227E-3
1.316000E-7	4.171032E-3
1.316500E-7	4.207004E-3
1.317000E-7	4.201865E-3
1.317500E-7	4.179597E-3
1.318000E-7	4.150476E-3
1.318500E-7	4.133347E-3
1.319000E-7	4.064829E-3
1.319500E-7	4.008302E-3
1.320000E-7	3.939784E-3
1.320500E-7	3.908951E-3
1.321000E-7	3.866127E-3
1.321500E-7	3.830155E-3
1.322000E-7	3.771915E-3
1.322500E-7	3.735943E-3
1.323000E-7	3.699971E-3
1.323500E-7	3.672563E-3
1.324000E-7	3.631453E-3
1.324500E-7	3.562935E-3
1.325000E-7	3.506407E-3
1.325500E-7	3.497843E-3
1.326000E-7	3.489278E-3
1.326500E-7	3.516685E-3
1.327000E-7	3.573212E-3
1.327500E-7	3.619462E-3
1.328000E-7	3.691406E-3
1.328500E-7	3.763350E-3
1.329000E-7	3.806174E-3
1.329500E-7	3.867840E-3
1.330000E-7	3.860988E-3
1.330500E-7	3.876404E-3
1.331000E-7	3.859275E-3
1.331500E-7	3.823303E-3
1.332000E-7	3.780479E-3
1.332500E-7	3.725665E-3
1.333000E-7	3.655434E-3
1.333500E-7	3.576638E-3
1.334000E-7	3.509833E-3
1.334500E-7	3.439602E-3
1.335000E-7	3.383075E-3
1.335500E-7	3.345390E-3
1.336000E-7	3.355668E-3
1.336500E-7	3.388214E-3
1.337000E-7	3.467009E-3
1.337500E-7	3.552657E-3
1.338000E-7	3.614323E-3
1.338500E-7	3.711961E-3
1.339000E-7	3.761637E-3
1.339500E-7	3.828442E-3
1.340000E-7	3.879830E-3
1.340500E-7	3.890108E-3
1.341000E-7	3.890108E-3
1.341500E-7	3.857562E-3
1.342000E-7	3.837007E-3
1.342500E-7	3.794183E-3
1.343000E-7	3.749646E-3
1.343500E-7	3.694832E-3
1.344000E-7	3.592055E-3
1.344500E-7	3.528676E-3
1.345000E-7	3.508120E-3
1.345500E-7	3.465296E-3
1.346000E-7	3.405343E-3
1.346500E-7	3.391640E-3
1.347000E-7	3.365945E-3
1.347500E-7	3.311131E-3
1.348000E-7	3.273446E-3
1.348500E-7	3.230622E-3
1.349000E-7	3.204928E-3
1.349500E-7	3.203215E-3
1.350000E-7	3.199789E-3
1.350500E-7	3.220345E-3
1.351000E-7	3.285437E-3
1.351500E-7	3.316270E-3
1.352000E-7	3.316270E-3
1.352500E-7	3.345390E-3
1.353000E-7	3.365945E-3
1.353500E-7	3.403630E-3
1.354000E-7	3.446454E-3
1.354500E-7	3.480713E-3
1.355000E-7	3.501268E-3
1.355500E-7	3.516685E-3
1.356000E-7	3.496130E-3
1.356500E-7	3.492704E-3
1.357000E-7	3.514972E-3
1.357500E-7	3.504694E-3
1.358000E-7	3.513259E-3
1.358500E-7	3.547518E-3
1.359000E-7	3.610897E-3
1.359500E-7	3.657147E-3
1.360000E-7	3.747933E-3
1.360500E-7	3.818164E-3
1.361000E-7	3.883256E-3
1.361500E-7	3.890108E-3
1.362000E-7	3.919228E-3
1.362500E-7	3.898673E-3
1.363000E-7	3.850710E-3
1.363500E-7	3.811312E-3
1.364000E-7	3.730804E-3
1.364500E-7	3.660573E-3
1.365000E-7	3.583490E-3
1.365500E-7	3.550944E-3
1.366000E-7	3.465296E-3
1.366500E-7	3.408769E-3
1.367000E-7	3.353955E-3
1.367500E-7	3.292289E-3
1.368000E-7	3.230622E-3
1.368500E-7	3.160391E-3
1.369000E-7	3.107290E-3
1.369500E-7	3.079883E-3
1.370000E-7	3.078170E-3
1.370500E-7	3.086735E-3
1.371000E-7	3.129558E-3
1.371500E-7	3.182660E-3
1.372000E-7	3.299140E-3
1.372500E-7	3.441315E-3
1.373000E-7	3.602332E-3
1.373500E-7	3.758211E-3
1.374000E-7	3.891821E-3
1.374500E-7	3.987746E-3
1.375000E-7	4.025431E-3
1.375500E-7	4.008302E-3
1.376000E-7	3.972330E-3
1.376500E-7	3.857562E-3
1.377000E-7	3.741081E-3
1.377500E-7	3.609184E-3
1.378000E-7	3.460158E-3
1.378500E-7	3.297427E-3
1.379000E-7	3.187799E-3
1.379500E-7	3.110716E-3
1.380000E-7	3.028494E-3
1.380500E-7	3.001087E-3
1.381000E-7	3.007939E-3
1.381500E-7	3.037059E-3
1.382000E-7	3.088447E-3
1.382500E-7	3.144975E-3
1.383000E-7	3.244326E-3
1.383500E-7	3.304279E-3
1.384000E-7	3.371084E-3
1.384500E-7	3.425899E-3
1.385000E-7	3.470435E-3
1.385500E-7	3.506407E-3
1.386000E-7	3.552657E-3
1.386500E-7	3.605758E-3
1.387000E-7	3.628027E-3
1.387500E-7	3.653721E-3
1.388000E-7	3.663999E-3
1.388500E-7	3.660573E-3
1.389000E-7	3.609184E-3
1.389500E-7	3.550944E-3
1.390000E-7	3.460158E-3
1.390500E-7	3.359094E-3
1.391000E-7	3.239187E-3
1.391500E-7	3.093586E-3
1.392000E-7	2.968541E-3
1.392500E-7	2.889745E-3
1.393000E-7	2.816088E-3
1.393500E-7	2.774978E-3
1.394000E-7	2.774978E-3
1.394500E-7	2.810950E-3
1.395000E-7	2.910301E-3
1.395500E-7	3.033633E-3
1.396000E-7	3.139836E-3
1.396500E-7	3.222058E-3
1.397000E-7	3.311131E-3
1.397500E-7	3.401917E-3
1.398000E-7	3.475574E-3
1.398500E-7	3.549231E-3
1.399000E-7	3.568073E-3
1.399500E-7	3.619462E-3
1.400000E-7	3.614323E-3
1.400500E-7	3.586916E-3
1.401000E-7	3.547518E-3
1.401500E-7	3.499555E-3
1.402000E-7	3.408769E-3
1.402500E-7	3.343677E-3
1.403000E-7	3.299140E-3
1.403500E-7	3.263168E-3
1.404000E-7	3.244326E-3
1.404500E-7	3.201502E-3
1.405000E-7	3.222058E-3
1.405500E-7	3.282011E-3
1.406000E-7	3.355668E-3
1.406500E-7	3.424186E-3
1.407000E-7	3.509833E-3
1.407500E-7	3.571499E-3
1.408000E-7	3.633166E-3
1.408500E-7	3.675989E-3
1.409000E-7	3.705109E-3
1.409500E-7	3.727378E-3
1.410000E-7	3.720526E-3
1.410500E-7	3.710248E-3
1.411000E-7	3.689693E-3
1.411500E-7	3.655434E-3
1.412000E-7	3.597194E-3
1.412500E-7	3.550944E-3
1.413000E-7	3.508120E-3
1.413500E-7	3.443028E-3
1.414000E-7	3.381362E-3
1.414500E-7	3.312844E-3
1.415000E-7	3.278585E-3
1.415500E-7	3.199789E-3
1.416000E-7	3.168956E-3
1.416500E-7	3.083309E-3
1.417000E-7	3.021642E-3
1.417500E-7	2.966828E-3
1.418000E-7	2.922291E-3
1.418500E-7	2.889745E-3
1.419000E-7	2.874329E-3
1.419500E-7	2.855486E-3
1.420000E-7	2.874329E-3
1.420500E-7	2.946273E-3
1.421000E-7	2.997661E-3
1.421500E-7	3.143262E-3
1.422000E-7	3.259742E-3
1.422500E-7	3.417334E-3
1.423000E-7	3.523537E-3
1.423500E-7	3.629740E-3
1.424000E-7	3.717100E-3
1.424500E-7	3.753072E-3
1.425000E-7	3.778766E-3
1.425500E-7	3.732517E-3
1.426000E-7	3.653721E-3
1.426500E-7	3.571499E-3
1.427000E-7	3.448167E-3
1.427500E-7	3.300853E-3
1.428000E-7	3.177521E-3
1.428500E-7	3.064466E-3
1.429000E-7	2.965115E-3
1.429500E-7	2.874329E-3
1.430000E-7	2.836644E-3
1.430500E-7	2.802385E-3
1.431000E-7	2.807524E-3
1.431500E-7	2.805811E-3
1.432000E-7	2.831505E-3
1.432500E-7	2.879468E-3
1.433000E-7	2.944560E-3
1.433500E-7	3.013078E-3
1.434000E-7	3.069605E-3
1.434500E-7	3.115855E-3
1.435000E-7	3.180947E-3
1.435500E-7	3.235761E-3
1.436000E-7	3.240900E-3
1.436500E-7	3.294001E-3
1.437000E-7	3.364232E-3
1.437500E-7	3.407056E-3
1.438000E-7	3.456732E-3
1.438500E-7	3.520111E-3
1.439000E-7	3.525250E-3
1.439500E-7	3.521824E-3
1.440000E-7	3.470435E-3
1.440500E-7	3.386501E-3
1.441000E-7	3.270020E-3
1.441500E-7	3.136410E-3
1.442000E-7	2.995948E-3
1.442500E-7	2.850347E-3
1.443000E-7	2.733867E-3
1.443500E-7	2.625951E-3
1.444000E-7	2.552294E-3
1.444500E-7	2.511183E-3
1.445000E-7	2.524887E-3
1.445500E-7	2.542016E-3
1.446000E-7	2.619099E-3
1.446500E-7	2.689330E-3
1.447000E-7	2.792107E-3
1.447500E-7	2.913727E-3
1.448000E-7	3.013078E-3
1.448500E-7	3.112429E-3
1.449000E-7	3.204928E-3
1.449500E-7	3.288863E-3
1.450000E-7	3.340251E-3
1.450500E-7	3.355668E-3
1.451000E-7	3.384788E-3
1.451500E-7	3.403630E-3
1.452000E-7	3.420760E-3
1.452500E-7	3.359094E-3
1.453000E-7	3.323122E-3
1.453500E-7	3.244326E-3
1.454000E-7	3.165530E-3
1.454500E-7	3.055901E-3
1.455000E-7	2.939421E-3
1.455500E-7	2.845209E-3
1.456000E-7	2.774978E-3
1.456500E-7	2.711598E-3
1.457000E-7	2.667062E-3
1.457500E-7	2.624238E-3
1.458000E-7	2.600257E-3
1.458500E-7	2.622525E-3
1.459000E-7	2.656784E-3
1.459500E-7	2.667062E-3
1.460000E-7	2.742432E-3
1.460500E-7	2.788681E-3
1.461000E-7	2.826366E-3
1.461500E-7	2.867477E-3
1.462000E-7	2.918865E-3
1.462500E-7	2.941134E-3
1.463000E-7	2.947986E-3
1.463500E-7	2.953124E-3
1.464000E-7	2.966828E-3
1.464500E-7	2.995948E-3
1.465000E-7	3.004513E-3
1.465500E-7	3.026781E-3
1.466000E-7	3.050763E-3
1.466500E-7	3.064466E-3
1.467000E-7	3.079883E-3
1.467500E-7	3.136410E-3
1.468000E-7	3.158678E-3
1.468500E-7	3.156965E-3
1.469000E-7	3.127845E-3
1.469500E-7	3.103864E-3
1.470000E-7	3.062753E-3
1.470500E-7	3.040485E-3
1.471000E-7	3.004513E-3
1.471500E-7	2.985670E-3
1.472000E-7	2.959976E-3
1.472500E-7	2.901736E-3
1.473000E-7	2.874329E-3
1.473500E-7	2.822940E-3
1.474000E-7	2.778404E-3
1.474500E-7	2.720163E-3
1.475000E-7	2.713311E-3
1.475500E-7	2.711598E-3
1.476000E-7	2.727015E-3
1.476500E-7	2.727015E-3
1.477000E-7	2.769839E-3
1.477500E-7	2.786968E-3
1.478000E-7	2.850347E-3
1.478500E-7	2.941134E-3
1.479000E-7	3.038772E-3
1.479500E-7	3.138123E-3
1.480000E-7	3.244326E-3
1.480500E-7	3.374510E-3
1.481000E-7	3.463584E-3
1.481500E-7	3.571499E-3
1.482000E-7	3.629740E-3
1.482500E-7	3.662286E-3
1.483000E-7	3.652008E-3
1.483500E-7	3.561222E-3
1.484000E-7	3.463584E-3
1.484500E-7	3.400204E-3
1.485000E-7	3.300853E-3
1.485500E-7	3.180947E-3
1.486000E-7	3.093586E-3
1.486500E-7	3.035346E-3
1.487000E-7	2.999374E-3
1.487500E-7	3.026781E-3
1.488000E-7	3.086735E-3
1.488500E-7	3.175808E-3
1.489000E-7	3.307705E-3
1.489500E-7	3.420760E-3
1.490000E-7	3.544092E-3
1.490500E-7	3.612610E-3
1.491000E-7	3.684554E-3
1.491500E-7	3.727378E-3
1.492000E-7	3.693119E-3
1.492500E-7	3.609184E-3
1.493000E-7	3.504694E-3
1.493500E-7	3.331686E-3
1.494000E-7	3.148401E-3
1.494500E-7	2.985670E-3
1.495000E-7	2.836644E-3
1.495500E-7	2.684191E-3
1.496000E-7	2.571137E-3
1.496500E-7	2.492341E-3
1.497000E-7	2.439239E-3
1.497500E-7	2.446091E-3
1.498000E-7	2.478637E-3
1.498500E-7	2.550581E-3
1.499000E-7	2.624238E-3
1.499500E-7	2.684191E-3
1.500000E-7	2.742432E-3
1.500500E-7	2.829792E-3
1.501000E-7	2.898310E-3
1.501500E-7	2.970254E-3
1.502000E-7	3.062753E-3
1.502500E-7	3.124419E-3
1.503000E-7	3.180947E-3
1.503500E-7	3.223771E-3
1.504000E-7	3.275159E-3
1.504500E-7	3.311131E-3
1.505000E-7	3.335112E-3
1.505500E-7	3.314557E-3
1.506000E-7	3.268307E-3
1.506500E-7	3.162104E-3
1.507000E-7	3.040485E-3
1.507500E-7	2.900023E-3
1.508000E-7	2.769839E-3
1.508500E-7	2.624238E-3
1.509000E-7	2.494054E-3
1.509500E-7	2.415258E-3
1.510000E-7	2.396416E-3
1.510500E-7	2.404980E-3
1.511000E-7	2.504331E-3
1.511500E-7	2.617386E-3
1.512000E-7	2.747570E-3
1.512500E-7	2.894884E-3
1.513000E-7	3.050763E-3
1.513500E-7	3.206641E-3
1.514000E-7	3.326548E-3
1.514500E-7	3.407056E-3
1.515000E-7	3.422473E-3
1.515500E-7	3.372797E-3
1.516000E-7	3.316270E-3
1.516500E-7	3.184373E-3
1.517000E-7	3.038772E-3
1.517500E-7	2.891458E-3
1.518000E-7	2.778404E-3
1.518500E-7	2.655071E-3
1.519000E-7	2.595118E-3
1.519500E-7	2.554007E-3
1.520000E-7	2.593405E-3
1.520500E-7	2.656784E-3
1.521000E-7	2.732154E-3
1.521500E-7	2.840070E-3
1.522000E-7	2.973680E-3
1.522500E-7	3.107290E-3
1.523000E-7	3.258030E-3
1.523500E-7	3.379649E-3
1.524000E-7	3.490991E-3
1.524500E-7	3.561222E-3
1.525000E-7	3.578351E-3
1.525500E-7	3.523537E-3
1.526000E-7	3.484139E-3
1.526500E-7	3.429325E-3
1.527000E-7	3.376223E-3
1.527500E-7	3.321409E-3
1.528000E-7	3.256317E-3
1.528500E-7	3.247752E-3
1.529000E-7	3.246039E-3
1.529500E-7	3.251178E-3
1.530000E-7	3.273446E-3
1.530500E-7	3.294001E-3
1.531000E-7	3.314557E-3
1.531500E-7	3.295714E-3
1.532000E-7	3.275159E-3
1.532500E-7	3.273446E-3
1.533000E-7	3.215206E-3
1.533500E-7	3.139836E-3
1.534000E-7	3.061040E-3
1.534500E-7	2.994235E-3
1.535000E-7	2.942847E-3
1.535500E-7	2.882893E-3
1.536000E-7	2.853773E-3
1.536500E-7	2.886319E-3
1.537000E-7	2.934282E-3
1.537500E-7	3.023355E-3
1.538000E-7	3.138123E-3
1.538500E-7	3.228909E-3
1.539000E-7	3.317983E-3
1.539500E-7	3.446454E-3
1.540000E-7	3.559509E-3
1.540500E-7	3.638304E-3
1.541000E-7	3.679415E-3
1.541500E-7	3.703397E-3
1.542000E-7	3.677702E-3
1.542500E-7	3.650295E-3
1.543000E-7	3.566361E-3
1.543500E-7	3.482426E-3
1.544000E-7	3.362519E-3
1.544500E-7	3.256317E-3
1.545000E-7	3.156965E-3
1.545500E-7	3.071318E-3
1.546000E-7	3.006226E-3
1.546500E-7	2.980532E-3
1.547000E-7	2.966828E-3
1.547500E-7	2.997661E-3
1.548000E-7	3.050763E-3
1.548500E-7	3.105577E-3
1.549000E-7	3.109003E-3
1.549500E-7	3.138123E-3
1.550000E-7	3.170669E-3
1.550500E-7	3.179234E-3
1.551000E-7	3.198076E-3
1.551500E-7	3.218632E-3
1.552000E-7	3.206641E-3
1.552500E-7	3.198076E-3
1.553000E-7	3.175808E-3
1.553500E-7	3.167243E-3
1.554000E-7	3.180947E-3
1.554500E-7	3.227196E-3
1.555000E-7	3.254604E-3
1.555500E-7	3.302566E-3
1.556000E-7	3.348816E-3
1.556500E-7	3.400204E-3
1.557000E-7	3.415621E-3
1.557500E-7	3.432750E-3
1.558000E-7	3.391640E-3
1.558500E-7	3.353955E-3
1.559000E-7	3.282011E-3
1.559500E-7	3.177521E-3
1.560000E-7	3.061040E-3
1.560500E-7	2.956550E-3
1.561000E-7	2.828079E-3
1.561500E-7	2.720163E-3
1.562000E-7	2.608821E-3
1.562500E-7	2.512896E-3
1.563000E-7	2.442665E-3
1.563500E-7	2.369008E-3
1.564000E-7	2.333036E-3
1.564500E-7	2.300490E-3
1.565000E-7	2.334749E-3
1.565500E-7	2.380999E-3
1.566000E-7	2.470072E-3
1.566500E-7	2.577988E-3
1.567000E-7	2.684191E-3
1.567500E-7	2.797246E-3
1.568000E-7	2.889745E-3
1.568500E-7	2.997661E-3
1.569000E-7	3.115855E-3
1.569500E-7	3.213493E-3
1.570000E-7	3.287150E-3
1.570500E-7	3.362519E-3
1.571000E-7	3.434463E-3
1.571500E-7	3.456732E-3
1.572000E-7	3.465296E-3
1.572500E-7	3.444741E-3
1.573000E-7	3.420760E-3
1.573500E-7	3.410482E-3
1.574000E-7	3.393353E-3
1.574500E-7	3.335112E-3
1.575000E-7	3.309418E-3
1.575500E-7	3.223771E-3
1.576000E-7	3.163817E-3
1.576500E-7	3.078170E-3
1.577000E-7	3.026781E-3
1.577500E-7	3.009652E-3
1.578000E-7	3.001087E-3
1.578500E-7	2.985670E-3
1.579000E-7	2.961689E-3
1.579500E-7	2.944560E-3
1.580000E-7	2.910301E-3
1.580500E-7	2.908588E-3
1.581000E-7	2.910301E-3
1.581500E-7	2.927430E-3
1.582000E-7	2.913727E-3
1.582500E-7	2.917152E-3
1.583000E-7	2.898310E-3
1.583500E-7	2.858912E-3
1.584000E-7	2.814375E-3
1.584500E-7	2.761274E-3
1.585000E-7	2.757848E-3
1.585500E-7	2.756135E-3
1.586000E-7	2.788681E-3
1.586500E-7	2.840070E-3
1.587000E-7	2.912014E-3
1.587500E-7	2.978819E-3
1.588000E-7	3.054188E-3
1.588500E-7	3.114142E-3
1.589000E-7	3.187799E-3
1.589500E-7	3.240900E-3
1.590000E-7	3.251178E-3
1.590500E-7	3.235761E-3
1.591000E-7	3.184373E-3
1.591500E-7	3.093586E-3
1.592000E-7	2.978819E-3
1.592500E-7	2.876042E-3
1.593000E-7	2.757848E-3
1.593500E-7	2.661923E-3
1.594000E-7	2.583127E-3
1.594500E-7	2.542016E-3
1.595000E-7	2.554007E-3
1.595500E-7	2.574562E-3
1.596000E-7	2.605396E-3
1.596500E-7	2.656784E-3
1.597000E-7	2.735580E-3
1.597500E-7	2.809237E-3
1.598000E-7	2.888032E-3
1.598500E-7	2.966828E-3
1.599000E-7	3.004513E-3
1.599500E-7	3.043911E-3
1.600000E-7	3.067892E-3
1.600500E-7	3.093586E-3
1.601000E-7	3.115855E-3
1.601500E-7	3.129558E-3
1.602000E-7	3.143262E-3
1.602500E-7	3.167243E-3
1.603000E-7	3.228909E-3
1.603500E-7	3.288863E-3
1.604000E-7	3.323122E-3
1.604500E-7	3.347103E-3
1.605000E-7	3.343677E-3
1.605500E-7	3.316270E-3
1.606000E-7	3.311131E-3
1.606500E-7	3.266594E-3
1.607000E-7	3.194650E-3
1.607500E-7	3.086735E-3
1.608000E-7	3.006226E-3
1.608500E-7	2.918865E-3
1.609000E-7	2.857199E-3
1.609500E-7	2.771552E-3
1.610000E-7	2.749283E-3
1.610500E-7	2.750996E-3
1.611000E-7	2.732154E-3
1.611500E-7	2.739006E-3
1.612000E-7	2.754422E-3
1.612500E-7	2.797246E-3
1.613000E-7	2.826366E-3
1.613500E-7	2.865764E-3
1.614000E-7	2.870903E-3
1.614500E-7	2.877755E-3
1.615000E-7	2.929143E-3
1.615500E-7	2.939421E-3
1.616000E-7	2.961689E-3
1.616500E-7	2.989096E-3
1.617000E-7	3.033633E-3
1.617500E-7	3.059327E-3
1.618000E-7	3.100438E-3
1.618500E-7	3.158678E-3
1.619000E-7	3.222058E-3
1.619500E-7	3.305992E-3
1.620000E-7	3.316270E-3
1.620500E-7	3.379649E-3
1.621000E-7	3.437889E-3
1.621500E-7	3.455019E-3
1.622000E-7	3.443028E-3
1.622500E-7	3.439602E-3
1.623000E-7	3.388214E-3
1.623500E-7	3.353955E-3
1.624000E-7	3.285437E-3
1.624500E-7	3.254604E-3
1.625000E-7	3.201502E-3
1.625500E-7	3.150114E-3
1.626000E-7	3.115855E-3
1.626500E-7	3.083309E-3
1.627000E-7	3.090160E-3
1.627500E-7	3.074744E-3
1.628000E-7	3.045624E-3
1.628500E-7	3.052476E-3
1.629000E-7	3.090160E-3
1.629500E-7	3.110716E-3
1.630000E-7	3.129558E-3
1.630500E-7	3.155253E-3
1.631000E-7	3.189512E-3
1.631500E-7	3.204928E-3
1.632000E-7	3.216919E-3
1.632500E-7	3.216919E-3
1.633000E-7	3.263168E-3
1.633500E-7	3.287150E-3
1.634000E-7	3.329973E-3
1.634500E-7	3.376223E-3
1.635000E-7	3.396778E-3
1.635500E-7	3.419047E-3
1.636000E-7	3.405343E-3
1.636500E-7	3.401917E-3
1.637000E-7	3.384788E-3
1.637500E-7	3.350529E-3
1.638000E-7	3.319696E-3
1.638500E-7	3.292289E-3
1.639000E-7	3.268307E-3
1.639500E-7	3.285437E-3
1.640000E-7	3.305992E-3
1.640500E-7	3.350529E-3
1.641000E-7	3.393353E-3
1.641500E-7	3.446454E-3
1.642000E-7	3.496130E-3
1.642500E-7	3.542379E-3
1.643000E-7	3.550944E-3
1.643500E-7	3.569786E-3
1.644000E-7	3.528676E-3
1.644500E-7	3.484139E-3
1.645000E-7	3.437889E-3
1.645500E-7	3.396778E-3
1.646000E-7	3.413908E-3
1.646500E-7	3.424186E-3
1.647000E-7	3.412195E-3
1.647500E-7	3.424186E-3
1.648000E-7	3.410482E-3
1.648500E-7	3.369371E-3
1.649000E-7	3.336825E-3
1.649500E-7	3.283724E-3
1.650000E-7	3.187799E-3
1.650500E-7	3.097012E-3
1.651000E-7	3.013078E-3
1.651500E-7	2.903449E-3
1.652000E-7	2.829792E-3
1.652500E-7	2.764700E-3
1.653000E-7	2.754422E-3
1.653500E-7	2.759561E-3
1.654000E-7	2.855486E-3
1.654500E-7	2.995948E-3
1.655000E-7	3.158678E-3
1.655500E-7	3.319696E-3
1.656000E-7	3.484139E-3
1.656500E-7	3.614323E-3
1.657000E-7	3.732517E-3
1.657500E-7	3.819877E-3
1.658000E-7	3.831868E-3
1.658500E-7	3.821590E-3
1.659000E-7	3.787331E-3
1.659500E-7	3.706822E-3
1.660000E-7	3.634879E-3
1.660500E-7	3.578351E-3
1.661000E-7	3.532102E-3
1.661500E-7	3.470435E-3
1.662000E-7	3.461871E-3
1.662500E-7	3.458445E-3
1.663000E-7	3.443028E-3
1.663500E-7	3.434463E-3
1.664000E-7	3.417334E-3
1.664500E-7	3.372797E-3
1.665000E-7	3.307705E-3
1.665500E-7	3.222058E-3
1.666000E-7	3.103864E-3
1.666500E-7	3.019929E-3
1.667000E-7	2.954837E-3
1.667500E-7	2.901736E-3
1.668000E-7	2.853773E-3
1.668500E-7	2.838357E-3
1.669000E-7	2.843496E-3
1.669500E-7	2.862338E-3
1.670000E-7	2.917152E-3
1.670500E-7	3.014791E-3
1.671000E-7	3.093586E-3
1.671500E-7	3.160391E-3
1.672000E-7	3.203215E-3
1.672500E-7	3.242613E-3
1.673000E-7	3.252891E-3
1.673500E-7	3.225483E-3
1.674000E-7	3.187799E-3
1.674500E-7	3.155253E-3
1.675000E-7	3.124419E-3
1.675500E-7	3.081596E-3
1.676000E-7	3.081596E-3
1.676500E-7	3.064466E-3
1.677000E-7	3.031920E-3
1.677500E-7	3.013078E-3
1.678000E-7	3.001087E-3
1.678500E-7	2.995948E-3
1.679000E-7	2.995948E-3
1.679500E-7	3.002800E-3
1.680000E-7	2.973680E-3
1.680500E-7	2.958263E-3
1.681000E-7	2.927430E-3
1.681500E-7	2.913727E-3
1.682000E-7	2.889745E-3
1.682500E-7	2.884606E-3
1.683000E-7	2.903449E-3
1.683500E-7	2.913727E-3
1.684000E-7	2.942847E-3
1.684500E-7	2.949699E-3
1.685000E-7	2.987383E-3
1.685500E-7	3.018217E-3
1.686000E-7	3.031920E-3
1.686500E-7	3.059327E-3
1.687000E-7	3.103864E-3
1.687500E-7	3.136410E-3
1.688000E-7	3.146688E-3
1.688500E-7	3.170669E-3
1.689000E-7	3.138123E-3
1.689500E-7	3.074744E-3
1.690000E-7	3.016504E-3
1.690500E-7	2.942847E-3
1.691000E-7	2.821227E-3
1.691500E-7	2.727015E-3
1.692000E-7	2.600257E-3
1.692500E-7	2.490628E-3
1.693000E-7	2.418684E-3
1.693500E-7	2.365583E-3
1.694000E-7	2.314194E-3
1.694500E-7	2.321046E-3
1.695000E-7	2.365583E-3
1.695500E-7	2.468360E-3
1.696000E-7	2.613960E-3
1.696500E-7	2.749283E-3
1.697000E-7	2.920578E-3
1.697500E-7	3.090160E-3
1.698000E-7	3.218632E-3
1.698500E-7	3.323122E-3
1.699000E-7	3.367658E-3
1.699500E-7	3.407056E-3
1.700000E-7	3.422473E-3
1.700500E-7	3.412195E-3
1.701000E-7	3.388214E-3
1.701500E-7	3.359094E-3
1.702000E-7	3.326548E-3
1.702500E-7	3.319696E-3
1.703000E-7	3.355668E-3
1.703500E-7	3.395066E-3
1.704000E-7	3.417334E-3
1.704500E-7	3.470435E-3
1.705000E-7	3.506407E-3
1.705500E-7	3.532102E-3
1.706000E-7	3.499555E-3
1.706500E-7	3.441315E-3
1.707000E-7	3.377936E-3
1.707500E-7	3.261455E-3
1.708000E-7	3.120994E-3
1.708500E-7	2.983958E-3
1.709000E-7	2.836644E-3
1.709500E-7	2.709885E-3
1.710000E-7	2.619099E-3
1.710500E-7	2.559146E-3
1.711000E-7	2.576275E-3
1.711500E-7	2.625951E-3
1.712000E-7	2.696182E-3
1.712500E-7	2.761274E-3
1.713000E-7	2.838357E-3
1.713500E-7	2.910301E-3
1.714000E-7	2.994235E-3
1.714500E-7	3.045624E-3
1.715000E-7	3.120994E-3
1.715500E-7	3.191224E-3
1.716000E-7	3.198076E-3
1.716500E-7	3.186086E-3
1.717000E-7	3.150114E-3
1.717500E-7	3.085022E-3
1.718000E-7	3.045624E-3
1.718500E-7	3.037059E-3
1.719000E-7	3.006226E-3
1.719500E-7	2.963402E-3
1.720000E-7	2.965115E-3
1.720500E-7	2.912014E-3
1.721000E-7	2.889745E-3
1.721500E-7	2.845209E-3
1.722000E-7	2.834931E-3
1.722500E-7	2.821227E-3
1.723000E-7	2.816088E-3
1.723500E-7	2.829792E-3
1.724000E-7	2.814375E-3
1.724500E-7	2.838357E-3
1.725000E-7	2.852060E-3
1.725500E-7	2.865764E-3
1.726000E-7	2.903449E-3
1.726500E-7	2.946273E-3
1.727000E-7	3.006226E-3
1.727500E-7	3.043911E-3
1.728000E-7	3.109003E-3
1.728500E-7	3.160391E-3
1.729000E-7	3.258030E-3
1.729500E-7	3.312844E-3
1.730000E-7	3.328260E-3
1.730500E-7	3.341964E-3
1.731000E-7	3.367658E-3
1.731500E-7	3.353955E-3
1.732000E-7	3.328260E-3
1.732500E-7	3.324835E-3
1.733000E-7	3.282011E-3
1.733500E-7	3.244326E-3
1.734000E-7	3.222058E-3
1.734500E-7	3.208354E-3
1.735000E-7	3.211780E-3
1.735500E-7	3.247752E-3
1.736000E-7	3.287150E-3
1.736500E-7	3.333399E-3
1.737000E-7	3.352242E-3
1.737500E-7	3.389927E-3
1.738000E-7	3.410482E-3
1.738500E-7	3.446454E-3
1.739000E-7	3.434463E-3
1.739500E-7	3.441315E-3
1.740000E-7	3.432750E-3
1.740500E-7	3.405343E-3
1.741000E-7	3.367658E-3
1.741500E-7	3.326548E-3
1.742000E-7	3.276872E-3
1.742500E-7	3.227196E-3
1.743000E-7	3.158678E-3
1.743500E-7	3.117568E-3
1.744000E-7	3.134697E-3
1.744500E-7	3.184373E-3
1.745000E-7	3.258030E-3
1.745500E-7	3.345390E-3
1.746000E-7	3.401917E-3
1.746500E-7	3.451593E-3
1.747000E-7	3.460158E-3
1.747500E-7	3.467009E-3
1.748000E-7	3.446454E-3
1.748500E-7	3.372797E-3
1.749000E-7	3.312844E-3
1.749500E-7	3.240900E-3
1.750000E-7	3.182660E-3
1.750500E-7	3.151827E-3
1.751000E-7	3.155253E-3
1.751500E-7	3.158678E-3
1.752000E-7	3.208354E-3
1.752500E-7	3.282011E-3
1.753000E-7	3.388214E-3
1.753500E-7	3.490991E-3
1.754000E-7	3.574925E-3
1.754500E-7	3.634879E-3
1.755000E-7	3.614323E-3
1.755500E-7	3.593768E-3
1.756000E-7	3.550944E-3
1.756500E-7	3.458445E-3
1.757000E-7	3.329973E-3
1.757500E-7	3.192937E-3
1.758000E-7	3.066179E-3
1.758500E-7	2.970254E-3
1.759000E-7	2.944560E-3
1.759500E-7	2.913727E-3
1.760000E-7	2.927430E-3
1.760500E-7	2.973680E-3
1.761000E-7	3.043911E-3
1.761500E-7	3.115855E-3
1.762000E-7	3.201502E-3
1.762500E-7	3.309418E-3
1.763000E-7	3.398491E-3
1.763500E-7	3.487565E-3
1.764000E-7	3.523537E-3
1.764500E-7	3.566361E-3
1.765000E-7	3.597194E-3
1.765500E-7	3.612610E-3
1.766000E-7	3.624601E-3
1.766500E-7	3.621175E-3
1.767000E-7	3.583490E-3
1.767500E-7	3.528676E-3
1.768000E-7	3.477287E-3
1.768500E-7	3.453306E-3
1.769000E-7	3.448167E-3
1.769500E-7	3.408769E-3
1.770000E-7	3.395066E-3
1.770500E-7	3.444741E-3
1.771000E-7	3.479000E-3
1.771500E-7	3.545805E-3
1.772000E-7	3.616036E-3
1.772500E-7	3.684554E-3
1.773000E-7	3.737656E-3
1.773500E-7	3.792470E-3
1.774000E-7	3.825016E-3
1.774500E-7	3.828442E-3
1.775000E-7	3.807886E-3
1.775500E-7	3.739368E-3
1.776000E-7	3.645156E-3
1.776500E-7	3.547518E-3
1.777000E-7	3.415621E-3
1.777500E-7	3.259742E-3
1.778000E-7	3.155253E-3
1.778500E-7	3.085022E-3
1.779000E-7	3.007939E-3
1.779500E-7	3.006226E-3
1.780000E-7	3.043911E-3
1.780500E-7	3.138123E-3
1.781000E-7	3.297427E-3
1.781500E-7	3.467009E-3
1.782000E-7	3.641730E-3
1.782500E-7	3.809599E-3
1.783000E-7	3.982607E-3
1.783500E-7	4.148764E-3
1.784000E-7	4.253253E-3
1.784500E-7	4.296077E-3
1.785000E-7	4.272096E-3
1.785500E-7	4.205291E-3
1.786000E-7	4.068255E-3
1.786500E-7	3.900386E-3
1.787000E-7	3.747933E-3
1.787500E-7	3.598907E-3
1.788000E-7	3.448167E-3
1.788500E-7	3.350529E-3
1.789000E-7	3.299140E-3
1.789500E-7	3.278585E-3
1.790000E-7	3.316270E-3
1.790500E-7	3.353955E-3
1.791000E-7	3.417334E-3
1.791500E-7	3.468722E-3
1.792000E-7	3.485852E-3
1.792500E-7	3.422473E-3
1.793000E-7	3.331686E-3
1.793500E-7	3.218632E-3
1.794000E-7	3.035346E-3
1.794500E-7	2.836644E-3
1.795000E-7	2.658497E-3
1.795500E-7	2.483776E-3
1.796000E-7	2.353592E-3
1.796500E-7	2.267944E-3
1.797000E-7	2.254241E-3
1.797500E-7	2.285074E-3
1.798000E-7	2.377573E-3
1.798500E-7	2.476924E-3
1.799000E-7	2.572849E-3
1.799500E-7	2.672201E-3
1.800000E-7	2.754422E-3
1.800500E-7	2.804098E-3
1.801000E-7	2.850347E-3
1.801500E-7	2.833218E-3
1.802000E-7	2.795533E-3
1.802500E-7	2.733867E-3
1.803000E-7	2.718450E-3
1.803500E-7	2.721876E-3
1.804000E-7	2.761274E-3
1.804500E-7	2.853773E-3
1.805000E-7	2.958263E-3
1.805500E-7	3.055901E-3
1.806000E-7	3.162104E-3
1.806500E-7	3.304279E-3
1.807000E-7	3.429325E-3
1.807500E-7	3.509833E-3
1.808000E-7	3.571499E-3
1.808500E-7	3.585203E-3
1.809000E-7	3.568073E-3
1.809500E-7	3.537240E-3
1.810000E-7	3.508120E-3
1.810500E-7	3.432750E-3
1.811000E-7	3.364232E-3
1.811500E-7	3.343677E-3
1.812000E-7	3.323122E-3
1.812500E-7	3.340251E-3
1.813000E-7	3.353955E-3
1.813500E-7	3.395066E-3
1.814000E-7	3.441315E-3
1.814500E-7	3.487565E-3
1.815000E-7	3.540666E-3
1.815500E-7	3.552657E-3
1.816000E-7	3.542379E-3
1.816500E-7	3.521824E-3
1.817000E-7	3.467009E-3
1.817500E-7	3.383075E-3
1.818000E-7	3.275159E-3
1.818500E-7	3.177521E-3
1.819000E-7	3.061040E-3
1.819500E-7	2.985670E-3
1.820000E-7	2.918865E-3
1.820500E-7	2.834931E-3
1.821000E-7	2.805811E-3
1.821500E-7	2.809237E-3
1.822000E-7	2.822940E-3
1.822500E-7	2.852060E-3
1.823000E-7	2.891458E-3
1.823500E-7	2.896597E-3
1.824000E-7	2.843496E-3
1.824500E-7	2.783542E-3
1.825000E-7	2.711598E-3
1.825500E-7	2.622525E-3
1.826000E-7	2.542016E-3
1.826500E-7	2.488915E-3
1.827000E-7	2.430675E-3
1.827500E-7	2.410119E-3
1.828000E-7	2.452943E-3
1.828500E-7	2.552294E-3
1.829000E-7	2.720163E-3
1.829500E-7	2.884606E-3
1.830000E-7	3.011365E-3
1.830500E-7	3.083309E-3
1.831000E-7	3.155253E-3
1.831500E-7	3.184373E-3
1.832000E-7	3.196363E-3
1.832500E-7	3.143262E-3
1.833000E-7	3.038772E-3
1.833500E-7	2.951411E-3
1.834000E-7	2.877755E-3
1.834500E-7	2.836644E-3
1.835000E-7	2.783542E-3
1.835500E-7	2.768126E-3
1.836000E-7	2.762987E-3
1.836500E-7	2.805811E-3
1.837000E-7	2.906875E-3
1.837500E-7	2.999374E-3
1.838000E-7	3.066179E-3
1.838500E-7	3.136410E-3
1.839000E-7	3.179234E-3
1.839500E-7	3.215206E-3
1.840000E-7	3.230622E-3
1.840500E-7	3.268307E-3
1.841000E-7	3.343677E-3
1.841500E-7	3.383075E-3
1.842000E-7	3.405343E-3
1.842500E-7	3.431037E-3
1.843000E-7	3.422473E-3
1.843500E-7	3.420760E-3
1.844000E-7	3.398491E-3
1.844500E-7	3.348816E-3
1.845000E-7	3.266594E-3
1.845500E-7	3.182660E-3
1.846000E-7	3.098725E-3
1.846500E-7	3.019929E-3
1.847000E-7	2.961689E-3
1.847500E-7	2.934282E-3
1.848000E-7	2.935995E-3
1.848500E-7	2.942847E-3
1.849000E-7	3.006226E-3
1.849500E-7	3.066179E-3
1.850000E-7	3.127845E-3
1.850500E-7	3.167243E-3
1.851000E-7	3.187799E-3
1.851500E-7	3.172382E-3
1.852000E-7	3.160391E-3
1.852500E-7	3.182660E-3
1.853000E-7	3.191224E-3
1.853500E-7	3.201502E-3
1.854000E-7	3.215206E-3
1.854500E-7	3.244326E-3
1.855000E-7	3.295714E-3
1.855500E-7	3.359094E-3
1.856000E-7	3.432750E-3
1.856500E-7	3.530389E-3
1.857000E-7	3.674276E-3
1.857500E-7	3.802748E-3
1.858000E-7	3.900386E-3
1.858500E-7	3.953487E-3
1.859000E-7	3.994598E-3
1.859500E-7	3.991172E-3
1.860000E-7	3.944922E-3
1.860500E-7	3.917515E-3
1.861000E-7	3.878117E-3
1.861500E-7	3.845571E-3
1.862000E-7	3.795896E-3
1.862500E-7	3.775340E-3
1.863000E-7	3.778766E-3
1.863500E-7	3.746220E-3
1.864000E-7	3.742794E-3
1.864500E-7	3.754785E-3
1.865000E-7	3.720526E-3
1.865500E-7	3.667425E-3
1.866000E-7	3.658860E-3
1.866500E-7	3.645156E-3
1.867000E-7	3.614323E-3
1.867500E-7	3.595481E-3
1.868000E-7	3.564648E-3
1.868500E-7	3.559509E-3
1.869000E-7	3.617749E-3
1.869500E-7	3.653721E-3
1.870000E-7	3.699971E-3
1.870500E-7	3.742794E-3
1.871000E-7	3.744507E-3
1.871500E-7	3.687980E-3
1.872000E-7	3.600620E-3
1.872500E-7	3.501268E-3
1.873000E-7	3.367658E-3
1.873500E-7	3.218632E-3
1.874000E-7	3.073031E-3
1.874500E-7	2.980532E-3
1.875000E-7	2.884606E-3
1.875500E-7	2.814375E-3
1.876000E-7	2.833218E-3
1.876500E-7	2.932569E-3
1.877000E-7	3.018217E-3
1.877500E-7	3.138123E-3
1.878000E-7	3.264881E-3
1.878500E-7	3.407056E-3
1.879000E-7	3.492704E-3
1.879500E-7	3.598907E-3
1.880000E-7	3.669138E-3
1.880500E-7	3.691406E-3
1.881000E-7	3.660573E-3
1.881500E-7	3.638304E-3
1.882000E-7	3.556083E-3
1.882500E-7	3.463584E-3
1.883000E-7	3.396778E-3
1.883500E-7	3.340251E-3
1.884000E-7	3.311131E-3
1.884500E-7	3.323122E-3
1.885000E-7	3.360807E-3
1.885500E-7	3.415621E-3
1.886000E-7	3.501268E-3
1.886500E-7	3.574925E-3
1.887000E-7	3.622888E-3
1.887500E-7	3.653721E-3
1.888000E-7	3.715387E-3
1.888500E-7	3.758211E-3
1.889000E-7	3.790757E-3
1.889500E-7	3.809599E-3
1.890000E-7	3.821590E-3
1.890500E-7	3.819877E-3
1.891000E-7	3.835294E-3
1.891500E-7	3.860988E-3
1.892000E-7	3.905525E-3
1.892500E-7	3.915802E-3
1.893000E-7	3.927793E-3
1.893500E-7	3.908951E-3
1.894000E-7	3.864414E-3
1.894500E-7	3.789044E-3
1.895000E-7	3.705109E-3
1.895500E-7	3.605758E-3
1.896000E-7	3.501268E-3
1.896500E-7	3.425899E-3
1.897000E-7	3.401917E-3
1.897500E-7	3.362519E-3
1.898000E-7	3.348816E-3
1.898500E-7	3.369371E-3
1.899000E-7	3.400204E-3
1.899500E-7	3.470435E-3
1.900000E-7	3.506407E-3
1.900500E-7	3.578351E-3
1.901000E-7	3.602332E-3
1.901500E-7	3.583490E-3
1.902000E-7	3.516685E-3
1.902500E-7	3.401917E-3
1.903000E-7	3.290576E-3
1.903500E-7	3.168956E-3
1.904000E-7	3.086735E-3
1.904500E-7	2.983958E-3
1.905000E-7	2.927430E-3
1.905500E-7	2.905162E-3
1.906000E-7	2.876042E-3
1.906500E-7	2.853773E-3
1.907000E-7	2.896597E-3
1.907500E-7	2.977106E-3
1.908000E-7	3.050763E-3
1.908500E-7	3.153540E-3
1.909000E-7	3.259742E-3
1.909500E-7	3.353955E-3
1.910000E-7	3.439602E-3
1.910500E-7	3.509833E-3
1.911000E-7	3.574925E-3
1.911500E-7	3.643443E-3
1.912000E-7	3.682841E-3
1.912500E-7	3.701684E-3
1.913000E-7	3.696545E-3
1.913500E-7	3.693119E-3
1.914000E-7	3.662286E-3
1.914500E-7	3.609184E-3
1.915000E-7	3.561222E-3
1.915500E-7	3.506407E-3
1.916000E-7	3.470435E-3
1.916500E-7	3.448167E-3
1.917000E-7	3.453306E-3
1.917500E-7	3.465296E-3
1.918000E-7	3.475574E-3
1.918500E-7	3.489278E-3
1.919000E-7	3.489278E-3
1.919500E-7	3.463584E-3
1.920000E-7	3.444741E-3
1.920500E-7	3.401917E-3
1.921000E-7	3.321409E-3
1.921500E-7	3.225483E-3
1.922000E-7	3.073031E-3
1.922500E-7	2.946273E-3
1.923000E-7	2.846922E-3
1.923500E-7	2.785255E-3
1.924000E-7	2.771552E-3
1.924500E-7	2.824653E-3
1.925000E-7	2.968541E-3
1.925500E-7	3.139836E-3
1.926000E-7	3.348816E-3
1.926500E-7	3.569786E-3
1.927000E-7	3.814738E-3
1.927500E-7	4.003163E-3
1.928000E-7	4.131634E-3
1.928500E-7	4.196726E-3
1.929000E-7	4.201865E-3
1.929500E-7	4.155615E-3
1.930000E-7	4.039135E-3
1.930500E-7	3.914089E-3
1.931000E-7	3.771915E-3
1.931500E-7	3.645156E-3
1.932000E-7	3.523537E-3
1.932500E-7	3.388214E-3
1.933000E-7	3.350529E-3
1.933500E-7	3.341964E-3
1.934000E-7	3.353955E-3
1.934500E-7	3.374510E-3
1.935000E-7	3.449880E-3
1.935500E-7	3.502981E-3
1.936000E-7	3.526963E-3
1.936500E-7	3.542379E-3
1.937000E-7	3.508120E-3
1.937500E-7	3.448167E-3
1.938000E-7	3.369371E-3
1.938500E-7	3.263168E-3
1.939000E-7	3.148401E-3
1.939500E-7	3.019929E-3
1.940000E-7	2.900023E-3
1.940500E-7	2.766413E-3
1.941000E-7	2.680765E-3
1.941500E-7	2.624238E-3
1.942000E-7	2.596831E-3
1.942500E-7	2.571137E-3
1.943000E-7	2.579701E-3
1.943500E-7	2.624238E-3
1.944000E-7	2.716737E-3
1.944500E-7	2.822940E-3
1.945000E-7	2.927430E-3
1.945500E-7	3.067892E-3
1.946000E-7	3.189512E-3
1.946500E-7	3.316270E-3
1.947000E-7	3.379649E-3
1.947500E-7	3.407056E-3
1.948000E-7	3.437889E-3
1.948500E-7	3.484139E-3
1.949000E-7	3.538953E-3
1.949500E-7	3.590342E-3
1.950000E-7	3.640017E-3
1.950500E-7	3.663999E-3
1.951000E-7	3.675989E-3
1.951500E-7	3.650295E-3
1.952000E-7	3.645156E-3
1.952500E-7	3.626314E-3
1.953000E-7	3.559509E-3
1.953500E-7	3.467009E-3
1.954000E-7	3.355668E-3
1.954500E-7	3.247752E-3
1.955000E-7	3.138123E-3
1.955500E-7	3.045624E-3
1.956000E-7	2.942847E-3
1.956500E-7	2.869190E-3
1.957000E-7	2.852060E-3
1.957500E-7	2.901736E-3
1.958000E-7	2.983958E-3
1.958500E-7	3.115855E-3
1.959000E-7	3.232335E-3
1.959500E-7	3.305992E-3
1.960000E-7	3.396778E-3
1.960500E-7	3.492704E-3
1.961000E-7	3.586916E-3
1.961500E-7	3.621175E-3
1.962000E-7	3.557796E-3
1.962500E-7	3.482426E-3
1.963000E-7	3.381362E-3
1.963500E-7	3.264881E-3
1.964000E-7	3.160391E-3
1.964500E-7	3.073031E-3
1.965000E-7	3.001087E-3
1.965500E-7	2.951411E-3
1.966000E-7	2.954837E-3
1.966500E-7	2.965115E-3
1.967000E-7	3.040485E-3
1.967500E-7	3.120994E-3
1.968000E-7	3.198076E-3
1.968500E-7	3.280298E-3
1.969000E-7	3.312844E-3
1.969500E-7	3.335112E-3
1.970000E-7	3.326548E-3
1.970500E-7	3.288863E-3
1.971000E-7	3.168956E-3
1.971500E-7	3.078170E-3
1.972000E-7	2.968541E-3
1.972500E-7	2.850347E-3
1.973000E-7	2.756135E-3
1.973500E-7	2.660210E-3
1.974000E-7	2.612247E-3
1.974500E-7	2.579701E-3
1.975000E-7	2.579701E-3
1.975500E-7	2.581414E-3
1.976000E-7	2.641367E-3
1.976500E-7	2.708173E-3
1.977000E-7	2.793820E-3
1.977500E-7	2.841783E-3
1.978000E-7	2.905162E-3
1.978500E-7	2.980532E-3
1.979000E-7	3.006226E-3
1.979500E-7	2.987383E-3
1.980000E-7	2.963402E-3
1.980500E-7	2.917152E-3
1.981000E-7	2.870903E-3
1.981500E-7	2.838357E-3
1.982000E-7	2.814375E-3
1.982500E-7	2.771552E-3
1.983000E-7	2.759561E-3
1.983500E-7	2.778404E-3
1.984000E-7	2.840070E-3
1.984500E-7	2.893171E-3
1.985000E-7	2.983958E-3
1.985500E-7	3.109003E-3
1.986000E-7	3.170669E-3
1.986500E-7	3.227196E-3
1.987000E-7	3.249465E-3
1.987500E-7	3.271733E-3
1.988000E-7	3.335112E-3
1.988500E-7	3.376223E-3
1.989000E-7	3.374510E-3
1.989500E-7	3.374510E-3
1.990000E-7	3.347103E-3
1.990500E-7	3.280298E-3
1.991000E-7	3.211780E-3
1.991500E-7	3.153540E-3
1.992000E-7	3.117568E-3
1.992500E-7	3.119281E-3
1.993000E-7	3.103864E-3
1.993500E-7	3.124419E-3
1.994000E-7	3.132984E-3
1.994500E-7	3.175808E-3
1.995000E-7	3.184373E-3
1.995500E-7	3.170669E-3
1.996000E-7	3.146688E-3
1.996500E-7	3.114142E-3
1.997000E-7	3.042198E-3
1.997500E-7	2.989096E-3
1.998000E-7	2.930856E-3
1.998500E-7	2.913727E-3
1.999000E-7	2.908588E-3
1.999500E-7	2.944560E-3
2.000000E-7	2.997661E-3
2.000500E-7	3.062753E-3
