Study Name	VanadiumIrradiated_V3plus
Sample Name	2022-01-04
Run Name	unirradiated_1
Operator	Angus
Date	1/4/2022
Time	13:42
Sign	FIX
Grating Spacing	06.40um
Channel	3
Number Traces	10000
Files in Batch	1
Batch Number	1
dt	50.000001E-12
time stamp (ms)	13:42:27
	
Time	Amplitude
0.000000E+0	-9.232816E-4
5.000000E-11	-8.444859E-4
1.000000E-10	-7.519866E-4
1.500000E-10	-6.783297E-4
2.000000E-10	-6.269412E-4
2.500000E-10	-5.995340E-4
3.000000E-10	-5.310160E-4
3.500000E-10	-4.659239E-4
4.000000E-10	-3.991188E-4
4.500000E-10	-3.031936E-4
5.000000E-10	-2.209720E-4
5.500000E-10	-1.987037E-4
6.000000E-10	-1.884260E-4
6.500000E-10	-2.124073E-4
7.000000E-10	-2.381015E-4
7.500000E-10	-2.757864E-4
8.000000E-10	-3.340267E-4
8.500000E-10	-3.717116E-4
9.000000E-10	-4.008318E-4
9.500000E-10	-4.196742E-4
1.000000E-9	-4.522203E-4
1.050000E-9	-4.796275E-4
1.100000E-9	-4.642109E-4
1.150000E-9	-4.368037E-4
1.200000E-9	-4.025447E-4
1.250000E-9	-3.682857E-4
1.300000E-9	-3.117584E-4
1.350000E-9	-3.031936E-4
1.400000E-9	-3.597210E-4
1.450000E-9	-3.665728E-4
1.500000E-9	-4.368037E-4
1.550000E-9	-5.464326E-4
1.600000E-9	-6.594873E-4
1.650000E-9	-7.434218E-4
1.700000E-9	-7.828197E-4
1.750000E-9	-8.170787E-4
1.800000E-9	-8.479118E-4
1.850000E-9	-8.684672E-4
1.900000E-9	-8.530506E-4
1.950000E-9	-8.376341E-4
2.000000E-9	-7.965233E-4
2.050000E-9	-7.434218E-4
2.100000E-9	-6.663391E-4
2.150000E-9	-6.183765E-4
2.200000E-9	-5.943952E-4
2.250000E-9	-5.721268E-4
2.300000E-9	-5.738398E-4
2.350000E-9	-6.132376E-4
2.400000E-9	-6.680520E-4
2.450000E-9	-7.348571E-4
2.500000E-9	-8.085139E-4
2.550000E-9	-8.599024E-4
2.600000E-9	-9.078650E-4
2.650000E-9	-9.284204E-4
2.700000E-9	-9.335593E-4
2.750000E-9	-9.061521E-4
2.800000E-9	-8.873096E-4
2.850000E-9	-8.479118E-4
2.900000E-9	-8.085139E-4
2.950000E-9	-7.365700E-4
3.000000E-9	-6.646261E-4
3.050000E-9	-5.875434E-4
3.100000E-9	-4.727757E-4
3.150000E-9	-3.220361E-4
3.200000E-9	-1.781483E-4
3.250000E-9	-2.569573E-5
3.300000E-9	1.096273E-4
3.350000E-9	1.952748E-4
3.400000E-9	2.603669E-4
3.450000E-9	2.483763E-4
3.500000E-9	2.243950E-4
3.550000E-9	1.387475E-4
3.600000E-9	4.624817E-5
3.650000E-9	-8.564899E-5
3.700000E-9	-2.124073E-4
3.750000E-9	-3.682857E-4
3.800000E-9	-5.053217E-4
3.850000E-9	-6.012470E-4
3.900000E-9	-6.714779E-4
3.950000E-9	-6.783297E-4
4.000000E-9	-6.252283E-4
4.050000E-9	-5.361549E-4
4.100000E-9	-4.470814E-4
4.150000E-9	-3.271749E-4
4.200000E-9	-2.124073E-4
4.250000E-9	-1.438893E-4
4.300000E-9	-1.267598E-4
4.350000E-9	-1.181950E-4
4.400000E-9	-1.575929E-4
4.450000E-9	-2.278238E-4
4.500000E-9	-3.220361E-4
4.550000E-9	-4.179613E-4
4.600000E-9	-5.464326E-4
4.650000E-9	-6.457837E-4
4.700000E-9	-6.988851E-4
4.750000E-9	-7.314312E-4
4.800000E-9	-7.143017E-4
4.850000E-9	-7.023110E-4
4.900000E-9	-6.526355E-4
4.950000E-9	-5.978211E-4
5.000000E-9	-5.738398E-4
5.050000E-9	-5.549973E-4
5.100000E-9	-5.498585E-4
5.150000E-9	-5.549973E-4
5.200000E-9	-5.687009E-4
5.250000E-9	-5.926822E-4
5.300000E-9	-6.423578E-4
5.350000E-9	-7.280053E-4
5.400000E-9	-8.085139E-4
5.450000E-9	-8.684672E-4
5.500000E-9	-9.027262E-4
5.550000E-9	-9.712442E-4
5.600000E-9	-1.024346E-3
5.650000E-9	-1.082586E-3
5.700000E-9	-1.111706E-3
5.750000E-9	-1.132261E-3
5.800000E-9	-1.139113E-3
5.850000E-9	-1.128836E-3
5.900000E-9	-1.080873E-3
5.950000E-9	-1.012355E-3
6.000000E-9	-9.232816E-4
6.050000E-9	-8.547636E-4
6.100000E-9	-7.656902E-4
6.150000E-9	-6.629132E-4
6.200000E-9	-6.029599E-4
6.250000E-9	-5.584232E-4
6.300000E-9	-4.881922E-4
6.350000E-9	-4.522203E-4
6.400000E-9	-4.008318E-4
6.450000E-9	-3.186102E-4
6.500000E-9	-1.524540E-4
6.550000E-9	1.455993E-4
6.600000E-9	6.560584E-4
6.650000E-9	1.416608E-3
6.700000E-9	2.461508E-3
6.750000E-9	3.946635E-3
6.800000E-9	5.856575E-3
6.850000E-9	8.259844E-3
6.900000E-9	1.115473E-2
6.950000E-9	1.445045E-2
7.000000E-9	1.807333E-2
7.050000E-9	2.188636E-2
7.100000E-9	2.578161E-2
7.150000E-9	2.956209E-2
7.200000E-9	3.309419E-2
7.250000E-9	3.623917E-2
7.300000E-9	3.883429E-2
7.350000E-9	4.087441E-2
7.400000E-9	4.235269E-2
7.450000E-9	4.326569E-2
7.500000E-9	4.372990E-2
7.550000E-9	4.385666E-2
7.600000E-9	4.381897E-2
7.650000E-9	4.369050E-2
7.700000E-9	4.358087E-2
7.750000E-9	4.362027E-2
7.800000E-9	4.390291E-2
7.850000E-9	4.446133E-2
7.900000E-9	4.533665E-2
7.950000E-9	4.641409E-2
8.000000E-9	4.769195E-2
8.050000E-9	4.908287E-2
8.100000E-9	5.040527E-2
8.150000E-9	5.161632E-2
8.200000E-9	5.257044E-2
8.250000E-9	5.320765E-2
8.300000E-9	5.347487E-2
8.350000E-9	5.338237E-2
8.400000E-9	5.290617E-2
8.450000E-9	5.207711E-2
8.500000E-9	5.095512E-2
8.550000E-9	4.956935E-2
8.600000E-9	4.792834E-2
8.650000E-9	4.610576E-2
8.700000E-9	4.421809E-2
8.750000E-9	4.236125E-2
8.800000E-9	4.051983E-2
8.850000E-9	3.873836E-2
8.900000E-9	3.710421E-2
8.950000E-9	3.556941E-2
9.000000E-9	3.415280E-2
9.050000E-9	3.290406E-2
9.100000E-9	3.177865E-2
9.150000E-9	3.080569E-2
9.200000E-9	3.002459E-2
9.250000E-9	2.939593E-2
9.300000E-9	2.891117E-2
9.350000E-9	2.853775E-2
9.400000E-9	2.829965E-2
9.450000E-9	2.817289E-2
9.500000E-9	2.814205E-2
9.550000E-9	2.816432E-2
9.600000E-9	2.826539E-2
9.650000E-9	2.839386E-2
9.700000E-9	2.860626E-2
9.750000E-9	2.890432E-2
9.800000E-9	2.920751E-2
9.850000E-9	2.961348E-2
9.900000E-9	3.010338E-2
9.950000E-9	3.069949E-2
1.000000E-8	3.135555E-2
1.005000E-8	3.220003E-2
1.010000E-8	3.312503E-2
1.015000E-8	3.417335E-2
1.020000E-8	3.531075E-2
1.025000E-8	3.652695E-2
1.030000E-8	3.778939E-2
1.035000E-8	3.899702E-2
1.040000E-8	4.010359E-2
1.045000E-8	4.116904E-2
1.050000E-8	4.213514E-2
1.055000E-8	4.293680E-2
1.060000E-8	4.362198E-2
1.065000E-8	4.415642E-2
1.070000E-8	4.454184E-2
1.075000E-8	4.477823E-2
1.080000E-8	4.483475E-2
1.085000E-8	4.468915E-2
1.090000E-8	4.439453E-2
1.095000E-8	4.393888E-2
1.100000E-8	4.336504E-2
1.105000E-8	4.267472E-2
1.110000E-8	4.182510E-2
1.115000E-8	4.088298E-2
1.120000E-8	3.989118E-2
1.125000E-8	3.881716E-2
1.130000E-8	3.766948E-2
1.135000E-8	3.651495E-2
1.140000E-8	3.536043E-2
1.145000E-8	3.425043E-2
1.150000E-8	3.323123E-2
1.155000E-8	3.221374E-2
1.160000E-8	3.121166E-2
1.165000E-8	3.028324E-2
1.170000E-8	2.945931E-2
1.175000E-8	2.867650E-2
1.180000E-8	2.794164E-2
1.185000E-8	2.727530E-2
1.190000E-8	2.671174E-2
1.195000E-8	2.623383E-2
1.200000E-8	2.583642E-2
1.205000E-8	2.562573E-2
1.210000E-8	2.550240E-2
1.215000E-8	2.554522E-2
1.220000E-8	2.569939E-2
1.225000E-8	2.598374E-2
1.230000E-8	2.640341E-2
1.235000E-8	2.698239E-2
1.240000E-8	2.771210E-2
1.245000E-8	2.846923E-2
1.250000E-8	2.928631E-2
1.255000E-8	3.022158E-2
1.260000E-8	3.117912E-2
1.265000E-8	3.217777E-2
1.270000E-8	3.325864E-2
1.275000E-8	3.434636E-2
1.280000E-8	3.539640E-2
1.285000E-8	3.645329E-2
1.290000E-8	3.748277E-2
1.295000E-8	3.842318E-2
1.300000E-8	3.928993E-2
1.305000E-8	4.004363E-2
1.310000E-8	4.067057E-2
1.315000E-8	4.120672E-2
1.320000E-8	4.162811E-2
1.325000E-8	4.187649E-2
1.330000E-8	4.199639E-2
1.335000E-8	4.198098E-2
1.340000E-8	4.182167E-2
1.345000E-8	4.157672E-2
1.350000E-8	4.120844E-2
1.355000E-8	4.073052E-2
1.360000E-8	4.013442E-2
1.365000E-8	3.944753E-2
1.370000E-8	3.864244E-2
1.375000E-8	3.773458E-2
1.380000E-8	3.674620E-2
1.385000E-8	3.571329E-2
1.390000E-8	3.460159E-2
1.395000E-8	3.349331E-2
1.400000E-8	3.239702E-2
1.405000E-8	3.129902E-2
1.410000E-8	3.021986E-2
1.415000E-8	2.918010E-2
1.420000E-8	2.823798E-2
1.425000E-8	2.735752E-2
1.430000E-8	2.655586E-2
1.435000E-8	2.584156E-2
1.440000E-8	2.520092E-2
1.445000E-8	2.468018E-2
1.450000E-8	2.424167E-2
1.455000E-8	2.388880E-2
1.460000E-8	2.363014E-2
1.465000E-8	2.353422E-2
1.470000E-8	2.354792E-2
1.475000E-8	2.361815E-2
1.480000E-8	2.386653E-2
1.485000E-8	2.425023E-2
1.490000E-8	2.478981E-2
1.495000E-8	2.545958E-2
1.500000E-8	2.621499E-2
1.505000E-8	2.708003E-2
1.510000E-8	2.797590E-2
1.515000E-8	2.891631E-2
1.520000E-8	2.991153E-2
1.525000E-8	3.093759E-2
1.530000E-8	3.196022E-2
1.535000E-8	3.298114E-2
1.540000E-8	3.397122E-2
1.545000E-8	3.493048E-2
1.550000E-8	3.579380E-2
1.555000E-8	3.659718E-2
1.560000E-8	3.734916E-2
1.565000E-8	3.799323E-2
1.570000E-8	3.854651E-2
1.575000E-8	3.902785E-2
1.580000E-8	3.936016E-2
1.585000E-8	3.958627E-2
1.590000E-8	3.967192E-2
1.595000E-8	3.959313E-2
1.600000E-8	3.938928E-2
1.605000E-8	3.909466E-2
1.610000E-8	3.862360E-2
1.615000E-8	3.803434E-2
1.620000E-8	3.732689E-2
1.625000E-8	3.654579E-2
1.630000E-8	3.560024E-2
1.635000E-8	3.458275E-2
1.640000E-8	3.350701E-2
1.645000E-8	3.235420E-2
1.650000E-8	3.119111E-2
1.655000E-8	3.000574E-2
1.660000E-8	2.877927E-2
1.665000E-8	2.761104E-2
1.670000E-8	2.653873E-2
1.675000E-8	2.547499E-2
1.680000E-8	2.449861E-2
1.685000E-8	2.361987E-2
1.690000E-8	2.283362E-2
1.695000E-8	2.223066E-2
1.700000E-8	2.178872E-2
1.705000E-8	2.148896E-2
1.710000E-8	2.133822E-2
1.715000E-8	2.127998E-2
1.720000E-8	2.136905E-2
1.725000E-8	2.156261E-2
1.730000E-8	2.188807E-2
1.735000E-8	2.228034E-2
1.740000E-8	2.278737E-2
1.745000E-8	2.338691E-2
1.750000E-8	2.409435E-2
1.755000E-8	2.489088E-2
1.760000E-8	2.578161E-2
1.765000E-8	2.673058E-2
1.770000E-8	2.779433E-2
1.775000E-8	2.890432E-2
1.780000E-8	3.000061E-2
1.785000E-8	3.112430E-2
1.790000E-8	3.229767E-2
1.795000E-8	3.335970E-2
1.800000E-8	3.433951E-2
1.805000E-8	3.528848E-2
1.810000E-8	3.609186E-2
1.815000E-8	3.675819E-2
1.820000E-8	3.732004E-2
1.825000E-8	3.776541E-2
1.830000E-8	3.801892E-2
1.835000E-8	3.812684E-2
1.840000E-8	3.808059E-2
1.845000E-8	3.793499E-2
1.850000E-8	3.765407E-2
1.855000E-8	3.724296E-2
1.860000E-8	3.674106E-2
1.865000E-8	3.613811E-2
1.870000E-8	3.547006E-2
1.875000E-8	3.470951E-2
1.880000E-8	3.389072E-2
1.885000E-8	3.300341E-2
1.890000E-8	3.208184E-2
1.895000E-8	3.110032E-2
1.900000E-8	3.006741E-2
1.905000E-8	2.902251E-2
1.910000E-8	2.799817E-2
1.915000E-8	2.691216E-2
1.920000E-8	2.583642E-2
1.925000E-8	2.481037E-2
1.930000E-8	2.383570E-2
1.935000E-8	2.294668E-2
1.940000E-8	2.217242E-2
1.945000E-8	2.151979E-2
1.950000E-8	2.101447E-2
1.955000E-8	2.063933E-2
1.960000E-8	2.046119E-2
1.965000E-8	2.038753E-2
1.970000E-8	2.045776E-2
1.975000E-8	2.063419E-2
1.980000E-8	2.091854E-2
1.985000E-8	2.132794E-2
1.990000E-8	2.187951E-2
1.995000E-8	2.251159E-2
2.000000E-8	2.322418E-2
2.005000E-8	2.404297E-2
2.010000E-8	2.489259E-2
2.015000E-8	2.577476E-2
2.020000E-8	2.668091E-2
2.025000E-8	2.763673E-2
2.030000E-8	2.858400E-2
2.035000E-8	2.954154E-2
2.040000E-8	3.043570E-2
2.045000E-8	3.128703E-2
2.050000E-8	3.206642E-2
2.055000E-8	3.279785E-2
2.060000E-8	3.345049E-2
2.065000E-8	3.403118E-2
2.070000E-8	3.452451E-2
2.075000E-8	3.491335E-2
2.080000E-8	3.521311E-2
2.085000E-8	3.537070E-2
2.090000E-8	3.544094E-2
2.095000E-8	3.539811E-2
2.100000E-8	3.523881E-2
2.105000E-8	3.494932E-2
2.110000E-8	3.452965E-2
2.115000E-8	3.399349E-2
2.120000E-8	3.335456E-2
2.125000E-8	3.262142E-2
2.130000E-8	3.184203E-2
2.135000E-8	3.098213E-2
2.140000E-8	3.005542E-2
2.145000E-8	2.907561E-2
2.150000E-8	2.804613E-2
2.155000E-8	2.700123E-2
2.160000E-8	2.593406E-2
2.165000E-8	2.487032E-2
2.170000E-8	2.386824E-2
2.175000E-8	2.291242E-2
2.180000E-8	2.197543E-2
2.185000E-8	2.109669E-2
2.190000E-8	2.027790E-2
2.195000E-8	1.955504E-2
2.200000E-8	1.895208E-2
2.205000E-8	1.848273E-2
2.210000E-8	1.816755E-2
2.215000E-8	1.801681E-2
2.220000E-8	1.802366E-2
2.225000E-8	1.817782E-2
2.230000E-8	1.846217E-2
2.235000E-8	1.888699E-2
2.240000E-8	1.941286E-2
2.245000E-8	2.002096E-2
2.250000E-8	2.071642E-2
2.255000E-8	2.149067E-2
2.260000E-8	2.235400E-2
2.265000E-8	2.326700E-2
2.270000E-8	2.427593E-2
2.275000E-8	2.532083E-2
2.280000E-8	2.641026E-2
2.285000E-8	2.749113E-2
2.290000E-8	2.855488E-2
2.295000E-8	2.957237E-2
2.300000E-8	3.050079E-2
2.305000E-8	3.138810E-2
2.310000E-8	3.214693E-2
2.315000E-8	3.285438E-2
2.320000E-8	3.343336E-2
2.325000E-8	3.393696E-2
2.330000E-8	3.431895E-2
2.335000E-8	3.461701E-2
2.340000E-8	3.476775E-2
2.345000E-8	3.479173E-2
2.350000E-8	3.471636E-2
2.355000E-8	3.446113E-2
2.360000E-8	3.409970E-2
2.365000E-8	3.359266E-2
2.370000E-8	3.295031E-2
2.375000E-8	3.219832E-2
2.380000E-8	3.139495E-2
2.385000E-8	3.051449E-2
2.390000E-8	2.955524E-2
2.395000E-8	2.850691E-2
2.400000E-8	2.740720E-2
2.405000E-8	2.628864E-2
2.410000E-8	2.517180E-2
2.415000E-8	2.412519E-2
2.420000E-8	2.305117E-2
2.425000E-8	2.205937E-2
2.430000E-8	2.115664E-2
2.435000E-8	2.033957E-2
2.440000E-8	1.956703E-2
2.445000E-8	1.892467E-2
2.450000E-8	1.840051E-2
2.455000E-8	1.796884E-2
2.460000E-8	1.764510E-2
2.465000E-8	1.747038E-2
2.470000E-8	1.744811E-2
2.475000E-8	1.750635E-2
2.480000E-8	1.771190E-2
2.485000E-8	1.805107E-2
2.490000E-8	1.852555E-2
2.495000E-8	1.909425E-2
2.500000E-8	1.979142E-2
2.505000E-8	2.049202E-2
2.510000E-8	2.132109E-2
2.515000E-8	2.222724E-2
2.520000E-8	2.314709E-2
2.525000E-8	2.408236E-2
2.530000E-8	2.503648E-2
2.535000E-8	2.599059E-2
2.540000E-8	2.687105E-2
2.545000E-8	2.777034E-2
2.550000E-8	2.862853E-2
2.555000E-8	2.944904E-2
2.560000E-8	3.018047E-2
2.565000E-8	3.089134E-2
2.570000E-8	3.149944E-2
2.575000E-8	3.202017E-2
2.580000E-8	3.240387E-2
2.585000E-8	3.268994E-2
2.590000E-8	3.283896E-2
2.595000E-8	3.284068E-2
2.600000E-8	3.268994E-2
2.605000E-8	3.239702E-2
2.610000E-8	3.200647E-2
2.615000E-8	3.151657E-2
2.620000E-8	3.095814E-2
2.625000E-8	3.031065E-2
2.630000E-8	2.964603E-2
2.635000E-8	2.892659E-2
2.640000E-8	2.816946E-2
2.645000E-8	2.741234E-2
2.650000E-8	2.666892E-2
2.655000E-8	2.585869E-2
2.660000E-8	2.505532E-2
2.665000E-8	2.423824E-2
2.670000E-8	2.340746E-2
2.675000E-8	2.256983E-2
2.680000E-8	2.176132E-2
2.685000E-8	2.096137E-2
2.690000E-8	2.025735E-2
2.695000E-8	1.961670E-2
2.700000E-8	1.901888E-2
2.705000E-8	1.850842E-2
2.710000E-8	1.806306E-2
2.715000E-8	1.774274E-2
2.720000E-8	1.751149E-2
2.725000E-8	1.740186E-2
2.730000E-8	1.739672E-2
2.735000E-8	1.754403E-2
2.740000E-8	1.779241E-2
2.745000E-8	1.813671E-2
2.750000E-8	1.858722E-2
2.755000E-8	1.917476E-2
2.760000E-8	1.982911E-2
2.765000E-8	2.058109E-2
2.770000E-8	2.147525E-2
2.775000E-8	2.241738E-2
2.780000E-8	2.337834E-2
2.785000E-8	2.436843E-2
2.790000E-8	2.537564E-2
2.795000E-8	2.633832E-2
2.800000E-8	2.721535E-2
2.805000E-8	2.804613E-2
2.810000E-8	2.884436E-2
2.815000E-8	2.948501E-2
2.820000E-8	2.999889E-2
2.825000E-8	3.047509E-2
2.830000E-8	3.085194E-2
2.835000E-8	3.112259E-2
2.840000E-8	3.131958E-2
2.845000E-8	3.141722E-2
2.850000E-8	3.141722E-2
2.855000E-8	3.134527E-2
2.860000E-8	3.117055E-2
2.865000E-8	3.085023E-2
2.870000E-8	3.040315E-2
2.875000E-8	2.985843E-2
2.880000E-8	2.918524E-2
2.885000E-8	2.842127E-2
2.890000E-8	2.758021E-2
2.895000E-8	2.666378E-2
2.900000E-8	2.566170E-2
2.905000E-8	2.465791E-2
2.910000E-8	2.366440E-2
2.915000E-8	2.269487E-2
2.920000E-8	2.176645E-2
2.925000E-8	2.089799E-2
2.930000E-8	2.008091E-2
2.935000E-8	1.935291E-2
2.940000E-8	1.870713E-2
2.945000E-8	1.810759E-2
2.950000E-8	1.760399E-2
2.955000E-8	1.718603E-2
2.960000E-8	1.688283E-2
2.965000E-8	1.668242E-2
2.970000E-8	1.660191E-2
2.975000E-8	1.662760E-2
2.980000E-8	1.682631E-2
2.985000E-8	1.711751E-2
2.990000E-8	1.755260E-2
2.995000E-8	1.806134E-2
3.000000E-8	1.866773E-2
3.005000E-8	1.935633E-2
3.010000E-8	2.007577E-2
3.015000E-8	2.084489E-2
3.020000E-8	2.162599E-2
3.025000E-8	2.246705E-2
3.030000E-8	2.330640E-2
3.035000E-8	2.418343E-2
3.040000E-8	2.507416E-2
3.045000E-8	2.593406E-2
3.050000E-8	2.677512E-2
3.055000E-8	2.753224E-2
3.060000E-8	2.825168E-2
3.065000E-8	2.890260E-2
3.070000E-8	2.948501E-2
3.075000E-8	2.992181E-2
3.080000E-8	3.024727E-2
3.085000E-8	3.048023E-2
3.090000E-8	3.059157E-2
3.095000E-8	3.058815E-2
3.100000E-8	3.048366E-2
3.105000E-8	3.025926E-2
3.110000E-8	2.995093E-2
3.115000E-8	2.956894E-2
3.120000E-8	2.909959E-2
3.125000E-8	2.860284E-2
3.130000E-8	2.797761E-2
3.135000E-8	2.726502E-2
3.140000E-8	2.649077E-2
3.145000E-8	2.563943E-2
3.150000E-8	2.470074E-2
3.155000E-8	2.369181E-2
3.160000E-8	2.269145E-2
3.165000E-8	2.169280E-2
3.170000E-8	2.074554E-2
3.175000E-8	1.983596E-2
3.180000E-8	1.900861E-2
3.185000E-8	1.830630E-2
3.190000E-8	1.771019E-2
3.195000E-8	1.717061E-2
3.200000E-8	1.674066E-2
3.205000E-8	1.638779E-2
3.210000E-8	1.616853E-2
3.215000E-8	1.597840E-2
3.220000E-8	1.586877E-2
3.225000E-8	1.585678E-2
3.230000E-8	1.593043E-2
3.235000E-8	1.607090E-2
3.240000E-8	1.631413E-2
3.245000E-8	1.671497E-2
3.250000E-8	1.719973E-2
3.255000E-8	1.777357E-2
3.260000E-8	1.845190E-2
3.265000E-8	1.929124E-2
3.270000E-8	2.018540E-2
3.275000E-8	2.107785E-2
3.280000E-8	2.198400E-2
3.285000E-8	2.287816E-2
3.290000E-8	2.373635E-2
3.295000E-8	2.451403E-2
3.300000E-8	2.523175E-2
3.305000E-8	2.586212E-2
3.310000E-8	2.641026E-2
3.315000E-8	2.691558E-2
3.320000E-8	2.733012E-2
3.325000E-8	2.769155E-2
3.330000E-8	2.798104E-2
3.335000E-8	2.818317E-2
3.340000E-8	2.832363E-2
3.345000E-8	2.838529E-2
3.350000E-8	2.833048E-2
3.355000E-8	2.820372E-2
3.360000E-8	2.800159E-2
3.365000E-8	2.776007E-2
3.370000E-8	2.739863E-2
3.375000E-8	2.696526E-2
3.380000E-8	2.644281E-2
3.385000E-8	2.582957E-2
3.390000E-8	2.517351E-2
3.395000E-8	2.446264E-2
3.400000E-8	2.370723E-2
3.405000E-8	2.293297E-2
3.410000E-8	2.213474E-2
3.415000E-8	2.136049E-2
3.420000E-8	2.055026E-2
3.425000E-8	1.977943E-2
3.430000E-8	1.900347E-2
3.435000E-8	1.829944E-2
3.440000E-8	1.766565E-2
3.445000E-8	1.711751E-2
3.450000E-8	1.660362E-2
3.455000E-8	1.624904E-2
3.460000E-8	1.597840E-2
3.465000E-8	1.580196E-2
3.470000E-8	1.571974E-2
3.475000E-8	1.573516E-2
3.480000E-8	1.583793E-2
3.485000E-8	1.602807E-2
3.490000E-8	1.632441E-2
3.495000E-8	1.673209E-2
3.500000E-8	1.720144E-2
3.505000E-8	1.777871E-2
3.510000E-8	1.842449E-2
3.515000E-8	1.913022E-2
3.520000E-8	1.985480E-2
3.525000E-8	2.063591E-2
3.530000E-8	2.145127E-2
3.535000E-8	2.223409E-2
3.540000E-8	2.301691E-2
3.545000E-8	2.373977E-2
3.550000E-8	2.441468E-2
3.555000E-8	2.504847E-2
3.560000E-8	2.564115E-2
3.565000E-8	2.618758E-2
3.570000E-8	2.672887E-2
3.575000E-8	2.716396E-2
3.580000E-8	2.750141E-2
3.585000E-8	2.776692E-2
3.590000E-8	2.791081E-2
3.595000E-8	2.801016E-2
3.600000E-8	2.798104E-2
3.605000E-8	2.783715E-2
3.610000E-8	2.760419E-2
3.615000E-8	2.727188E-2
3.620000E-8	2.685734E-2
3.625000E-8	2.637086E-2
3.630000E-8	2.582615E-2
3.635000E-8	2.524203E-2
3.640000E-8	2.461509E-2
3.645000E-8	2.394361E-2
3.650000E-8	2.326529E-2
3.655000E-8	2.255270E-2
3.660000E-8	2.182641E-2
3.665000E-8	2.106928E-2
3.670000E-8	2.033785E-2
3.675000E-8	1.956531E-2
3.680000E-8	1.878421E-2
3.685000E-8	1.805107E-2
3.690000E-8	1.732478E-2
3.695000E-8	1.664302E-2
3.700000E-8	1.605548E-2
3.705000E-8	1.554502E-2
3.710000E-8	1.517160E-2
3.715000E-8	1.494035E-2
3.720000E-8	1.481188E-2
3.725000E-8	1.476220E-2
3.730000E-8	1.485813E-2
3.735000E-8	1.506197E-2
3.740000E-8	1.534632E-2
3.745000E-8	1.569062E-2
3.750000E-8	1.608289E-2
3.755000E-8	1.656080E-2
3.760000E-8	1.708496E-2
3.765000E-8	1.763311E-2
3.770000E-8	1.825148E-2
3.775000E-8	1.892124E-2
3.780000E-8	1.966295E-2
3.785000E-8	2.042179E-2
3.790000E-8	2.120289E-2
3.795000E-8	2.199428E-2
3.800000E-8	2.276168E-2
3.805000E-8	2.351195E-2
3.810000E-8	2.417829E-2
3.815000E-8	2.483435E-2
3.820000E-8	2.541675E-2
3.825000E-8	2.593578E-2
3.830000E-8	2.638628E-2
3.835000E-8	2.678026E-2
3.840000E-8	2.707660E-2
3.845000E-8	2.723762E-2
3.850000E-8	2.730785E-2
3.855000E-8	2.727702E-2
3.860000E-8	2.709373E-2
3.865000E-8	2.685392E-2
3.870000E-8	2.651989E-2
3.875000E-8	2.607110E-2
3.880000E-8	2.557606E-2
3.885000E-8	2.499023E-2
3.890000E-8	2.436671E-2
3.895000E-8	2.368667E-2
3.900000E-8	2.298779E-2
3.905000E-8	2.228548E-2
3.910000E-8	2.158317E-2
3.915000E-8	2.090655E-2
3.920000E-8	2.020082E-2
3.925000E-8	1.951564E-2
3.930000E-8	1.881162E-2
3.935000E-8	1.810074E-2
3.940000E-8	1.737445E-2
3.945000E-8	1.663617E-2
3.950000E-8	1.597326E-2
3.955000E-8	1.538058E-2
3.960000E-8	1.488553E-2
3.965000E-8	1.448299E-2
3.970000E-8	1.425688E-2
3.975000E-8	1.415753E-2
3.980000E-8	1.416438E-2
3.985000E-8	1.431512E-2
3.990000E-8	1.458234E-2
3.995000E-8	1.494720E-2
4.000000E-8	1.537715E-2
4.005000E-8	1.587562E-2
4.010000E-8	1.645631E-2
4.015000E-8	1.707640E-2
4.020000E-8	1.769306E-2
4.025000E-8	1.833199E-2
4.030000E-8	1.899319E-2
4.035000E-8	1.967323E-2
4.040000E-8	2.037040E-2
4.045000E-8	2.104530E-2
4.050000E-8	2.172192E-2
4.055000E-8	2.244136E-2
4.060000E-8	2.310941E-2
4.065000E-8	2.374834E-2
4.070000E-8	2.430162E-2
4.075000E-8	2.479324E-2
4.080000E-8	2.515124E-2
4.085000E-8	2.536365E-2
4.090000E-8	2.550754E-2
4.095000E-8	2.551268E-2
4.100000E-8	2.539791E-2
4.105000E-8	2.521462E-2
4.110000E-8	2.497481E-2
4.115000E-8	2.463565E-2
4.120000E-8	2.427250E-2
4.125000E-8	2.385968E-2
4.130000E-8	2.343829E-2
4.135000E-8	2.296381E-2
4.140000E-8	2.247904E-2
4.145000E-8	2.200969E-2
4.150000E-8	2.148211E-2
4.155000E-8	2.090827E-2
4.160000E-8	2.027961E-2
4.165000E-8	1.962527E-2
4.170000E-8	1.892124E-2
4.175000E-8	1.820694E-2
4.180000E-8	1.747551E-2
4.185000E-8	1.680233E-2
4.190000E-8	1.619080E-2
4.195000E-8	1.565807E-2
4.200000E-8	1.517502E-2
4.205000E-8	1.481188E-2
4.210000E-8	1.454466E-2
4.215000E-8	1.435623E-2
4.220000E-8	1.428086E-2
4.225000E-8	1.428771E-2
4.230000E-8	1.439392E-2
4.235000E-8	1.458748E-2
4.240000E-8	1.483757E-2
4.245000E-8	1.513734E-2
4.250000E-8	1.552446E-2
4.255000E-8	1.591673E-2
4.260000E-8	1.635867E-2
4.265000E-8	1.681774E-2
4.270000E-8	1.731621E-2
4.275000E-8	1.790033E-2
4.280000E-8	1.849643E-2
4.285000E-8	1.916791E-2
4.290000E-8	1.985309E-2
4.295000E-8	2.053484E-2
4.300000E-8	2.119947E-2
4.305000E-8	2.188636E-2
4.310000E-8	2.252872E-2
4.315000E-8	2.304603E-2
4.320000E-8	2.352565E-2
4.325000E-8	2.394361E-2
4.330000E-8	2.424852E-2
4.335000E-8	2.447120E-2
4.340000E-8	2.461166E-2
4.345000E-8	2.466477E-2
4.350000E-8	2.459967E-2
4.355000E-8	2.443181E-2
4.360000E-8	2.417144E-2
4.365000E-8	2.379801E-2
4.370000E-8	2.337149E-2
4.375000E-8	2.291584E-2
4.380000E-8	2.238140E-2
4.385000E-8	2.185039E-2
4.390000E-8	2.134507E-2
4.395000E-8	2.078151E-2
4.400000E-8	2.018540E-2
4.405000E-8	1.962013E-2
4.410000E-8	1.906856E-2
4.415000E-8	1.853241E-2
4.420000E-8	1.802366E-2
4.425000E-8	1.749264E-2
4.430000E-8	1.702158E-2
4.435000E-8	1.654196E-2
4.440000E-8	1.607090E-2
4.445000E-8	1.567178E-2
4.450000E-8	1.530007E-2
4.455000E-8	1.492836E-2
4.460000E-8	1.458406E-2
4.465000E-8	1.430142E-2
4.470000E-8	1.407017E-2
4.475000E-8	1.393656E-2
4.480000E-8	1.384063E-2
4.485000E-8	1.384577E-2
4.490000E-8	1.397253E-2
4.495000E-8	1.415582E-2
4.500000E-8	1.444188E-2
4.505000E-8	1.480845E-2
4.510000E-8	1.523669E-2
4.515000E-8	1.566835E-2
4.520000E-8	1.617025E-2
4.525000E-8	1.668927E-2
4.530000E-8	1.720658E-2
4.535000E-8	1.773760E-2
4.540000E-8	1.828060E-2
4.545000E-8	1.879963E-2
4.550000E-8	1.930837E-2
4.555000E-8	1.979999E-2
4.560000E-8	2.025392E-2
4.565000E-8	2.064961E-2
4.570000E-8	2.103674E-2
4.575000E-8	2.142386E-2
4.580000E-8	2.178530E-2
4.585000E-8	2.209020E-2
4.590000E-8	2.234029E-2
4.595000E-8	2.253728E-2
4.600000E-8	2.269830E-2
4.605000E-8	2.272057E-2
4.610000E-8	2.267603E-2
4.615000E-8	2.255441E-2
4.620000E-8	2.233687E-2
4.625000E-8	2.207307E-2
4.630000E-8	2.173733E-2
4.635000E-8	2.133479E-2
4.640000E-8	2.084660E-2
4.645000E-8	2.033785E-2
4.650000E-8	1.983767E-2
4.655000E-8	1.932893E-2
4.660000E-8	1.879963E-2
4.665000E-8	1.830801E-2
4.670000E-8	1.783695E-2
4.675000E-8	1.738644E-2
4.680000E-8	1.690682E-2
4.685000E-8	1.648543E-2
4.690000E-8	1.609316E-2
4.695000E-8	1.570090E-2
4.700000E-8	1.535660E-2
4.705000E-8	1.503970E-2
4.710000E-8	1.475364E-2
4.715000E-8	1.452581E-2
4.720000E-8	1.435966E-2
4.725000E-8	1.426716E-2
4.730000E-8	1.429628E-2
4.735000E-8	1.435795E-2
4.740000E-8	1.449841E-2
4.745000E-8	1.474165E-2
4.750000E-8	1.507738E-2
4.755000E-8	1.544910E-2
4.760000E-8	1.586705E-2
4.765000E-8	1.627988E-2
4.770000E-8	1.673209E-2
4.775000E-8	1.716718E-2
4.780000E-8	1.759713E-2
4.785000E-8	1.799796E-2
4.790000E-8	1.839366E-2
4.795000E-8	1.876194E-2
4.800000E-8	1.909254E-2
4.805000E-8	1.942485E-2
4.810000E-8	1.977601E-2
4.815000E-8	2.008091E-2
4.820000E-8	2.043549E-2
4.825000E-8	2.081577E-2
4.830000E-8	2.117206E-2
4.835000E-8	2.149410E-2
4.840000E-8	2.173048E-2
4.845000E-8	2.191891E-2
4.850000E-8	2.206793E-2
4.855000E-8	2.211076E-2
4.860000E-8	2.202682E-2
4.865000E-8	2.186752E-2
4.870000E-8	2.162942E-2
4.875000E-8	2.130053E-2
4.880000E-8	2.093396E-2
4.885000E-8	2.057595E-2
4.890000E-8	2.015114E-2
4.895000E-8	1.970749E-2
4.900000E-8	1.927069E-2
4.905000E-8	1.881504E-2
4.910000E-8	1.839023E-2
4.915000E-8	1.795514E-2
4.920000E-8	1.752690E-2
4.925000E-8	1.708154E-2
4.930000E-8	1.665159E-2
4.935000E-8	1.624390E-2
4.940000E-8	1.583280E-2
4.945000E-8	1.543025E-2
4.950000E-8	1.503970E-2
4.955000E-8	1.475021E-2
4.960000E-8	1.447271E-2
4.965000E-8	1.424489E-2
4.970000E-8	1.411128E-2
4.975000E-8	1.400165E-2
4.980000E-8	1.397082E-2
4.985000E-8	1.402392E-2
4.990000E-8	1.420035E-2
4.995000E-8	1.442989E-2
5.000000E-8	1.471081E-2
5.005000E-8	1.501401E-2
5.010000E-8	1.539599E-2
5.015000E-8	1.578141E-2
5.020000E-8	1.613428E-2
5.025000E-8	1.654196E-2
5.030000E-8	1.700103E-2
5.035000E-8	1.745325E-2
5.040000E-8	1.787463E-2
5.045000E-8	1.834569E-2
5.050000E-8	1.881847E-2
5.055000E-8	1.926897E-2
5.060000E-8	1.966638E-2
5.065000E-8	2.003124E-2
5.070000E-8	2.037211E-2
5.075000E-8	2.064961E-2
5.080000E-8	2.086544E-2
5.085000E-8	2.105558E-2
5.090000E-8	2.116350E-2
5.095000E-8	2.122002E-2
5.100000E-8	2.120975E-2
5.105000E-8	2.114637E-2
5.110000E-8	2.103160E-2
5.115000E-8	2.085174E-2
5.120000E-8	2.062563E-2
5.125000E-8	2.041665E-2
5.130000E-8	2.020938E-2
5.135000E-8	1.997300E-2
5.140000E-8	1.971948E-2
5.145000E-8	1.944027E-2
5.150000E-8	1.914050E-2
5.155000E-8	1.884930E-2
5.160000E-8	1.850500E-2
5.165000E-8	1.811102E-2
5.170000E-8	1.768963E-2
5.175000E-8	1.722714E-2
5.180000E-8	1.670469E-2
5.185000E-8	1.617539E-2
5.190000E-8	1.567349E-2
5.195000E-8	1.512363E-2
5.200000E-8	1.466285E-2
5.205000E-8	1.423975E-2
5.210000E-8	1.388175E-2
5.215000E-8	1.361795E-2
5.220000E-8	1.344837E-2
5.225000E-8	1.338328E-2
5.230000E-8	1.339184E-2
5.235000E-8	1.348263E-2
5.240000E-8	1.364878E-2
5.245000E-8	1.385091E-2
5.250000E-8	1.408387E-2
5.255000E-8	1.433225E-2
5.260000E-8	1.459262E-2
5.265000E-8	1.484614E-2
5.270000E-8	1.512535E-2
5.275000E-8	1.538914E-2
5.280000E-8	1.568891E-2
5.285000E-8	1.597154E-2
5.290000E-8	1.628844E-2
5.295000E-8	1.662247E-2
5.300000E-8	1.691367E-2
5.305000E-8	1.718089E-2
5.310000E-8	1.743954E-2
5.315000E-8	1.769135E-2
5.320000E-8	1.791232E-2
5.325000E-8	1.814357E-2
5.330000E-8	1.835255E-2
5.335000E-8	1.851185E-2
5.340000E-8	1.861634E-2
5.345000E-8	1.872426E-2
5.350000E-8	1.879620E-2
5.355000E-8	1.884245E-2
5.360000E-8	1.889041E-2
5.365000E-8	1.889726E-2
5.370000E-8	1.887157E-2
5.375000E-8	1.880648E-2
5.380000E-8	1.869000E-2
5.385000E-8	1.854611E-2
5.390000E-8	1.837995E-2
5.395000E-8	1.816755E-2
5.400000E-8	1.789690E-2
5.405000E-8	1.761769E-2
5.410000E-8	1.730422E-2
5.415000E-8	1.687084E-2
5.420000E-8	1.642890E-2
5.425000E-8	1.598696E-2
5.430000E-8	1.556900E-2
5.435000E-8	1.516646E-2
5.440000E-8	1.476563E-2
5.445000E-8	1.442818E-2
5.450000E-8	1.415239E-2
5.455000E-8	1.388346E-2
5.460000E-8	1.366934E-2
5.465000E-8	1.353230E-2
5.470000E-8	1.345522E-2
5.475000E-8	1.343809E-2
5.480000E-8	1.350147E-2
5.485000E-8	1.360939E-2
5.490000E-8	1.375499E-2
5.495000E-8	1.393999E-2
5.500000E-8	1.414383E-2
5.505000E-8	1.434424E-2
5.510000E-8	1.456179E-2
5.515000E-8	1.478618E-2
5.520000E-8	1.502428E-2
5.525000E-8	1.529836E-2
5.530000E-8	1.556386E-2
5.535000E-8	1.583280E-2
5.540000E-8	1.613085E-2
5.545000E-8	1.641691E-2
5.550000E-8	1.668756E-2
5.555000E-8	1.695478E-2
5.560000E-8	1.721515E-2
5.565000E-8	1.748237E-2
5.570000E-8	1.774445E-2
5.575000E-8	1.795857E-2
5.580000E-8	1.817611E-2
5.585000E-8	1.832685E-2
5.590000E-8	1.845875E-2
5.595000E-8	1.857180E-2
5.600000E-8	1.861463E-2
5.605000E-8	1.867115E-2
5.610000E-8	1.865574E-2
5.615000E-8	1.864032E-2
5.620000E-8	1.859065E-2
5.625000E-8	1.849815E-2
5.630000E-8	1.837995E-2
5.635000E-8	1.821208E-2
5.640000E-8	1.798597E-2
5.645000E-8	1.768449E-2
5.650000E-8	1.733505E-2
5.655000E-8	1.695992E-2
5.660000E-8	1.654196E-2
5.665000E-8	1.613085E-2
5.670000E-8	1.570604E-2
5.675000E-8	1.529322E-2
5.680000E-8	1.490438E-2
5.685000E-8	1.456521E-2
5.690000E-8	1.426031E-2
5.695000E-8	1.403591E-2
5.700000E-8	1.383036E-2
5.705000E-8	1.366420E-2
5.710000E-8	1.355457E-2
5.715000E-8	1.346550E-2
5.720000E-8	1.340726E-2
5.725000E-8	1.336272E-2
5.730000E-8	1.327194E-2
5.735000E-8	1.312291E-2
5.740000E-8	1.303555E-2
5.745000E-8	1.294819E-2
5.750000E-8	1.290879E-2
5.755000E-8	1.296874E-2
5.760000E-8	1.307323E-2
5.765000E-8	1.323425E-2
5.770000E-8	1.346207E-2
5.775000E-8	1.379610E-2
5.780000E-8	1.417295E-2
5.785000E-8	1.462003E-2
5.790000E-8	1.513049E-2
5.795000E-8	1.562039E-2
5.800000E-8	1.609316E-2
5.805000E-8	1.654710E-2
5.810000E-8	1.700617E-2
5.815000E-8	1.735732E-2
5.820000E-8	1.765366E-2
5.825000E-8	1.787977E-2
5.830000E-8	1.803051E-2
5.835000E-8	1.811616E-2
5.840000E-8	1.811787E-2
5.845000E-8	1.804593E-2
5.850000E-8	1.796199E-2
5.855000E-8	1.780440E-2
5.860000E-8	1.766394E-2
5.865000E-8	1.747038E-2
5.870000E-8	1.728709E-2
5.875000E-8	1.705070E-2
5.880000E-8	1.680918E-2
5.885000E-8	1.657108E-2
5.890000E-8	1.635525E-2
5.895000E-8	1.612742E-2
5.900000E-8	1.592187E-2
5.905000E-8	1.574030E-2
5.910000E-8	1.557243E-2
5.915000E-8	1.543025E-2
5.920000E-8	1.526067E-2
5.925000E-8	1.512192E-2
5.930000E-8	1.500030E-2
5.935000E-8	1.485641E-2
5.940000E-8	1.470567E-2
5.945000E-8	1.456350E-2
5.950000E-8	1.442133E-2
5.955000E-8	1.427230E-2
5.960000E-8	1.409415E-2
5.965000E-8	1.392800E-2
5.970000E-8	1.379952E-2
5.975000E-8	1.364193E-2
5.980000E-8	1.350318E-2
5.985000E-8	1.339527E-2
5.990000E-8	1.337814E-2
5.995000E-8	1.340212E-2
6.000000E-8	1.343638E-2
6.005000E-8	1.349462E-2
6.010000E-8	1.358027E-2
6.015000E-8	1.371902E-2
6.020000E-8	1.387661E-2
6.025000E-8	1.409073E-2
6.030000E-8	1.430313E-2
6.035000E-8	1.454980E-2
6.040000E-8	1.479646E-2
6.045000E-8	1.506368E-2
6.050000E-8	1.532405E-2
6.055000E-8	1.556900E-2
6.060000E-8	1.581567E-2
6.065000E-8	1.604349E-2
6.070000E-8	1.621821E-2
6.075000E-8	1.638437E-2
6.080000E-8	1.650085E-2
6.085000E-8	1.661904E-2
6.090000E-8	1.669270E-2
6.095000E-8	1.677149E-2
6.100000E-8	1.679376E-2
6.105000E-8	1.676807E-2
6.110000E-8	1.672353E-2
6.115000E-8	1.669270E-2
6.120000E-8	1.659335E-2
6.125000E-8	1.644261E-2
6.130000E-8	1.632955E-2
6.135000E-8	1.613085E-2
6.140000E-8	1.593386E-2
6.145000E-8	1.570432E-2
6.150000E-8	1.548164E-2
6.155000E-8	1.528294E-2
6.160000E-8	1.510479E-2
6.165000E-8	1.494720E-2
6.170000E-8	1.482558E-2
6.175000E-8	1.471424E-2
6.180000E-8	1.462345E-2
6.185000E-8	1.453438E-2
6.190000E-8	1.447443E-2
6.195000E-8	1.437679E-2
6.200000E-8	1.423290E-2
6.205000E-8	1.409586E-2
6.210000E-8	1.394512E-2
6.215000E-8	1.378239E-2
6.220000E-8	1.362309E-2
6.225000E-8	1.350661E-2
6.230000E-8	1.340555E-2
6.235000E-8	1.331133E-2
6.240000E-8	1.328221E-2
6.245000E-8	1.332161E-2
6.250000E-8	1.338499E-2
6.255000E-8	1.351689E-2
6.260000E-8	1.364536E-2
6.265000E-8	1.375327E-2
6.270000E-8	1.386633E-2
6.275000E-8	1.393142E-2
6.280000E-8	1.399480E-2
6.285000E-8	1.406332E-2
6.290000E-8	1.413526E-2
6.295000E-8	1.418665E-2
6.300000E-8	1.422605E-2
6.305000E-8	1.426716E-2
6.310000E-8	1.436822E-2
6.315000E-8	1.446586E-2
6.320000E-8	1.458234E-2
6.325000E-8	1.476563E-2
6.330000E-8	1.498489E-2
6.335000E-8	1.521785E-2
6.340000E-8	1.545937E-2
6.345000E-8	1.568891E-2
6.350000E-8	1.593043E-2
6.355000E-8	1.610002E-2
6.360000E-8	1.619252E-2
6.365000E-8	1.622164E-2
6.370000E-8	1.623705E-2
6.375000E-8	1.615312E-2
6.380000E-8	1.600752E-2
6.385000E-8	1.577798E-2
6.390000E-8	1.549877E-2
6.395000E-8	1.517160E-2
6.400000E-8	1.479304E-2
6.405000E-8	1.440933E-2
6.410000E-8	1.401193E-2
6.415000E-8	1.366934E-2
6.420000E-8	1.335758E-2
6.425000E-8	1.309036E-2
6.430000E-8	1.284884E-2
6.435000E-8	1.271180E-2
6.440000E-8	1.257819E-2
6.445000E-8	1.250111E-2
6.450000E-8	1.241032E-2
6.455000E-8	1.232125E-2
6.460000E-8	1.226301E-2
6.465000E-8	1.214481E-2
6.470000E-8	1.205232E-2
6.475000E-8	1.196153E-2
6.480000E-8	1.189644E-2
6.485000E-8	1.183648E-2
6.490000E-8	1.176797E-2
6.495000E-8	1.170973E-2
6.500000E-8	1.169088E-2
6.505000E-8	1.171144E-2
6.510000E-8	1.177996E-2
6.515000E-8	1.187931E-2
6.520000E-8	1.204204E-2
6.525000E-8	1.224417E-2
6.530000E-8	1.244115E-2
6.535000E-8	1.270495E-2
6.540000E-8	1.295161E-2
6.545000E-8	1.318115E-2
6.550000E-8	1.338670E-2
6.555000E-8	1.359397E-2
6.560000E-8	1.374471E-2
6.565000E-8	1.391087E-2
6.570000E-8	1.405133E-2
6.575000E-8	1.414383E-2
6.580000E-8	1.423461E-2
6.585000E-8	1.428771E-2
6.590000E-8	1.434253E-2
6.595000E-8	1.444359E-2
6.600000E-8	1.451896E-2
6.605000E-8	1.460118E-2
6.610000E-8	1.467313E-2
6.615000E-8	1.472623E-2
6.620000E-8	1.475535E-2
6.625000E-8	1.475706E-2
6.630000E-8	1.472966E-2
6.635000E-8	1.465086E-2
6.640000E-8	1.458919E-2
6.645000E-8	1.447100E-2
6.650000E-8	1.435966E-2
6.655000E-8	1.421920E-2
6.660000E-8	1.405133E-2
6.665000E-8	1.387661E-2
6.670000E-8	1.369503E-2
6.675000E-8	1.352545E-2
6.680000E-8	1.337643E-2
6.685000E-8	1.322055E-2
6.690000E-8	1.310235E-2
6.695000E-8	1.296532E-2
6.700000E-8	1.282828E-2
6.705000E-8	1.269981E-2
6.710000E-8	1.258676E-2
6.715000E-8	1.248912E-2
6.720000E-8	1.241203E-2
6.725000E-8	1.235208E-2
6.730000E-8	1.230754E-2
6.735000E-8	1.229042E-2
6.740000E-8	1.228014E-2
6.745000E-8	1.227157E-2
6.750000E-8	1.231097E-2
6.755000E-8	1.236578E-2
6.760000E-8	1.242574E-2
6.765000E-8	1.249597E-2
6.770000E-8	1.258504E-2
6.775000E-8	1.264500E-2
6.780000E-8	1.272550E-2
6.785000E-8	1.278032E-2
6.790000E-8	1.286597E-2
6.795000E-8	1.296360E-2
6.800000E-8	1.305782E-2
6.805000E-8	1.320342E-2
6.810000E-8	1.337643E-2
6.815000E-8	1.354258E-2
6.820000E-8	1.370017E-2
6.825000E-8	1.387318E-2
6.830000E-8	1.400850E-2
6.835000E-8	1.411642E-2
6.840000E-8	1.418322E-2
6.845000E-8	1.420721E-2
6.850000E-8	1.421920E-2
6.855000E-8	1.415582E-2
6.860000E-8	1.405475E-2
6.865000E-8	1.394341E-2
6.870000E-8	1.380809E-2
6.875000E-8	1.369846E-2
6.880000E-8	1.354258E-2
6.885000E-8	1.343809E-2
6.890000E-8	1.332332E-2
6.895000E-8	1.320513E-2
6.900000E-8	1.310921E-2
6.905000E-8	1.303384E-2
6.910000E-8	1.293106E-2
6.915000E-8	1.284199E-2
6.920000E-8	1.268953E-2
6.925000E-8	1.256106E-2
6.930000E-8	1.241717E-2
6.935000E-8	1.228699E-2
6.940000E-8	1.214824E-2
6.945000E-8	1.200093E-2
6.950000E-8	1.188787E-2
6.955000E-8	1.175769E-2
6.960000E-8	1.170630E-2
6.965000E-8	1.167033E-2
6.970000E-8	1.169773E-2
6.975000E-8	1.176111E-2
6.980000E-8	1.184162E-2
6.985000E-8	1.191014E-2
6.990000E-8	1.198037E-2
6.995000E-8	1.205403E-2
7.000000E-8	1.209856E-2
7.005000E-8	1.214995E-2
7.010000E-8	1.219278E-2
7.015000E-8	1.220305E-2
7.020000E-8	1.215681E-2
7.025000E-8	1.210713E-2
7.030000E-8	1.208144E-2
7.035000E-8	1.207116E-2
7.040000E-8	1.209856E-2
7.045000E-8	1.217565E-2
7.050000E-8	1.226472E-2
7.055000E-8	1.240347E-2
7.060000E-8	1.254222E-2
7.065000E-8	1.265527E-2
7.070000E-8	1.275634E-2
7.075000E-8	1.284712E-2
7.080000E-8	1.293106E-2
7.085000E-8	1.302870E-2
7.090000E-8	1.313319E-2
7.095000E-8	1.322397E-2
7.100000E-8	1.329763E-2
7.105000E-8	1.334559E-2
7.110000E-8	1.342953E-2
7.115000E-8	1.348434E-2
7.120000E-8	1.355286E-2
7.125000E-8	1.358198E-2
7.130000E-8	1.361795E-2
7.135000E-8	1.363679E-2
7.140000E-8	1.363166E-2
7.145000E-8	1.358369E-2
7.150000E-8	1.347235E-2
7.155000E-8	1.337471E-2
7.160000E-8	1.323082E-2
7.165000E-8	1.310064E-2
7.170000E-8	1.293620E-2
7.175000E-8	1.277347E-2
7.180000E-8	1.260902E-2
7.185000E-8	1.239148E-2
7.190000E-8	1.223389E-2
7.195000E-8	1.205403E-2
7.200000E-8	1.189815E-2
7.205000E-8	1.174398E-2
7.210000E-8	1.161037E-2
7.215000E-8	1.150760E-2
7.220000E-8	1.143565E-2
7.225000E-8	1.135857E-2
7.230000E-8	1.127292E-2
7.235000E-8	1.125408E-2
7.240000E-8	1.119584E-2
7.245000E-8	1.115987E-2
7.250000E-8	1.113589E-2
7.255000E-8	1.115473E-2
7.260000E-8	1.118899E-2
7.265000E-8	1.125922E-2
7.270000E-8	1.132945E-2
7.275000E-8	1.145278E-2
7.280000E-8	1.157440E-2
7.285000E-8	1.173199E-2
7.290000E-8	1.188102E-2
7.295000E-8	1.203347E-2
7.300000E-8	1.217222E-2
7.305000E-8	1.229042E-2
7.310000E-8	1.244287E-2
7.315000E-8	1.254564E-2
7.320000E-8	1.267240E-2
7.325000E-8	1.273236E-2
7.330000E-8	1.277861E-2
7.335000E-8	1.281458E-2
7.340000E-8	1.284541E-2
7.345000E-8	1.284541E-2
7.350000E-8	1.285911E-2
7.355000E-8	1.283513E-2
7.360000E-8	1.284199E-2
7.365000E-8	1.285740E-2
7.370000E-8	1.285398E-2
7.375000E-8	1.283342E-2
7.380000E-8	1.277689E-2
7.385000E-8	1.271694E-2
7.390000E-8	1.262615E-2
7.395000E-8	1.252852E-2
7.400000E-8	1.241032E-2
7.405000E-8	1.231611E-2
7.410000E-8	1.220477E-2
7.415000E-8	1.208829E-2
7.420000E-8	1.194954E-2
7.425000E-8	1.184847E-2
7.430000E-8	1.173885E-2
7.435000E-8	1.163093E-2
7.440000E-8	1.153158E-2
7.445000E-8	1.141681E-2
7.450000E-8	1.134144E-2
7.455000E-8	1.126265E-2
7.460000E-8	1.117015E-2
7.465000E-8	1.108450E-2
7.470000E-8	1.103311E-2
7.475000E-8	1.100056E-2
7.480000E-8	1.099542E-2
7.485000E-8	1.099200E-2
7.490000E-8	1.106566E-2
7.495000E-8	1.113417E-2
7.500000E-8	1.118385E-2
7.505000E-8	1.123010E-2
7.510000E-8	1.127977E-2
7.515000E-8	1.129690E-2
7.520000E-8	1.135857E-2
7.525000E-8	1.142024E-2
7.530000E-8	1.149389E-2
7.535000E-8	1.155213E-2
7.540000E-8	1.160866E-2
7.545000E-8	1.166348E-2
7.550000E-8	1.176797E-2
7.555000E-8	1.186218E-2
7.560000E-8	1.199236E-2
7.565000E-8	1.210884E-2
7.570000E-8	1.224930E-2
7.575000E-8	1.234523E-2
7.580000E-8	1.238634E-2
7.585000E-8	1.238634E-2
7.590000E-8	1.231954E-2
7.595000E-8	1.220305E-2
7.600000E-8	1.202662E-2
7.605000E-8	1.186389E-2
7.610000E-8	1.169602E-2
7.615000E-8	1.152987E-2
7.620000E-8	1.139626E-2
7.625000E-8	1.128834E-2
7.630000E-8	1.122325E-2
7.635000E-8	1.121982E-2
7.640000E-8	1.124038E-2
7.645000E-8	1.125408E-2
7.650000E-8	1.125408E-2
7.655000E-8	1.123866E-2
7.660000E-8	1.122496E-2
7.665000E-8	1.118042E-2
7.670000E-8	1.111019E-2
7.675000E-8	1.102112E-2
7.680000E-8	1.096802E-2
7.685000E-8	1.089607E-2
7.690000E-8	1.085839E-2
7.695000E-8	1.086181E-2
7.700000E-8	1.084469E-2
7.705000E-8	1.084469E-2
7.710000E-8	1.084297E-2
7.715000E-8	1.086524E-2
7.720000E-8	1.083612E-2
7.725000E-8	1.081899E-2
7.730000E-8	1.078987E-2
7.735000E-8	1.076932E-2
7.740000E-8	1.071450E-2
7.745000E-8	1.066996E-2
7.750000E-8	1.063571E-2
7.755000E-8	1.061001E-2
7.760000E-8	1.058603E-2
7.765000E-8	1.054663E-2
7.770000E-8	1.052265E-2
7.775000E-8	1.052950E-2
7.780000E-8	1.056205E-2
7.785000E-8	1.055862E-2
7.790000E-8	1.058774E-2
7.795000E-8	1.058432E-2
7.800000E-8	1.056034E-2
7.805000E-8	1.056376E-2
7.810000E-8	1.057404E-2
7.815000E-8	1.058603E-2
7.820000E-8	1.060487E-2
7.825000E-8	1.065626E-2
7.830000E-8	1.067682E-2
7.835000E-8	1.073163E-2
7.840000E-8	1.080015E-2
7.845000E-8	1.090121E-2
7.850000E-8	1.093718E-2
7.855000E-8	1.100913E-2
7.860000E-8	1.106052E-2
7.865000E-8	1.107936E-2
7.870000E-8	1.105709E-2
7.875000E-8	1.103996E-2
7.880000E-8	1.102283E-2
7.885000E-8	1.099029E-2
7.890000E-8	1.099714E-2
7.895000E-8	1.098515E-2
7.900000E-8	1.095089E-2
7.905000E-8	1.093718E-2
7.910000E-8	1.090978E-2
7.915000E-8	1.088066E-2
7.920000E-8	1.086010E-2
7.925000E-8	1.083441E-2
7.930000E-8	1.078987E-2
7.935000E-8	1.074191E-2
7.940000E-8	1.074362E-2
7.945000E-8	1.071793E-2
7.950000E-8	1.070422E-2
7.955000E-8	1.067168E-2
7.960000E-8	1.069395E-2
7.965000E-8	1.073163E-2
7.970000E-8	1.074876E-2
7.975000E-8	1.078131E-2
7.980000E-8	1.079501E-2
7.985000E-8	1.078987E-2
7.990000E-8	1.077788E-2
7.995000E-8	1.074705E-2
8.000000E-8	1.066311E-2
8.005000E-8	1.059631E-2
8.010000E-8	1.054321E-2
8.015000E-8	1.049182E-2
8.020000E-8	1.040446E-2
8.025000E-8	1.034964E-2
8.030000E-8	1.033765E-2
8.035000E-8	1.032395E-2
8.040000E-8	1.034622E-2
8.045000E-8	1.038904E-2
8.050000E-8	1.041645E-2
8.055000E-8	1.046612E-2
8.060000E-8	1.057404E-2
8.065000E-8	1.067168E-2
8.070000E-8	1.078644E-2
8.075000E-8	1.096802E-2
8.080000E-8	1.109478E-2
8.085000E-8	1.115130E-2
8.090000E-8	1.119241E-2
8.095000E-8	1.120783E-2
8.100000E-8	1.118214E-2
8.105000E-8	1.113589E-2
8.110000E-8	1.107079E-2
8.115000E-8	1.102283E-2
8.120000E-8	1.098515E-2
8.125000E-8	1.096802E-2
8.130000E-8	1.094575E-2
8.135000E-8	1.096288E-2
8.140000E-8	1.097316E-2
8.145000E-8	1.101427E-2
8.150000E-8	1.105195E-2
8.155000E-8	1.109306E-2
8.160000E-8	1.114959E-2
8.165000E-8	1.117015E-2
8.170000E-8	1.118899E-2
8.175000E-8	1.114103E-2
8.180000E-8	1.104339E-2
8.185000E-8	1.097830E-2
8.190000E-8	1.087209E-2
8.195000E-8	1.075904E-2
8.200000E-8	1.066654E-2
8.205000E-8	1.055348E-2
8.210000E-8	1.047469E-2
8.215000E-8	1.040617E-2
8.220000E-8	1.037705E-2
8.225000E-8	1.036849E-2
8.230000E-8	1.037534E-2
8.235000E-8	1.034964E-2
8.240000E-8	1.032909E-2
8.245000E-8	1.026913E-2
8.250000E-8	1.019376E-2
8.255000E-8	1.015779E-2
8.260000E-8	1.012525E-2
8.265000E-8	1.006529E-2
8.270000E-8	1.005673E-2
8.275000E-8	1.003103E-2
8.280000E-8	1.002590E-2
8.285000E-8	1.002247E-2
8.290000E-8	1.004988E-2
8.295000E-8	1.007900E-2
8.300000E-8	1.012353E-2
8.305000E-8	1.015608E-2
8.310000E-8	1.020918E-2
8.315000E-8	1.027085E-2
8.320000E-8	1.031538E-2
8.325000E-8	1.036677E-2
8.330000E-8	1.037020E-2
8.335000E-8	1.042159E-2
8.340000E-8	1.046955E-2
8.345000E-8	1.048497E-2
8.350000E-8	1.053807E-2
8.355000E-8	1.060316E-2
8.360000E-8	1.061172E-2
8.365000E-8	1.059802E-2
8.370000E-8	1.062885E-2
8.375000E-8	1.065283E-2
8.380000E-8	1.065283E-2
8.385000E-8	1.066140E-2
8.390000E-8	1.068196E-2
8.395000E-8	1.065626E-2
8.400000E-8	1.062543E-2
8.405000E-8	1.055348E-2
8.410000E-8	1.048668E-2
8.415000E-8	1.040446E-2
8.420000E-8	1.028455E-2
8.425000E-8	1.016978E-2
8.430000E-8	1.005673E-2
8.435000E-8	9.936822E-3
8.440000E-8	9.794647E-3
8.445000E-8	9.673027E-3
8.450000E-8	9.561686E-3
8.455000E-8	9.506871E-3
8.460000E-8	9.441779E-3
8.465000E-8	9.417798E-3
8.470000E-8	9.433214E-3
8.475000E-8	9.460622E-3
8.480000E-8	9.518862E-3
8.485000E-8	9.561686E-3
8.490000E-8	9.595945E-3
8.495000E-8	9.640481E-3
8.500000E-8	9.685018E-3
8.505000E-8	9.739833E-3
8.510000E-8	9.846035E-3
8.515000E-8	9.955664E-3
8.520000E-8	1.003789E-2
8.525000E-8	1.011497E-2
8.530000E-8	1.019890E-2
8.535000E-8	1.023659E-2
8.540000E-8	1.027256E-2
8.545000E-8	1.030682E-2
8.550000E-8	1.028969E-2
8.555000E-8	1.023488E-2
8.560000E-8	1.015951E-2
8.565000E-8	1.006529E-2
8.570000E-8	9.974507E-3
8.575000E-8	9.873443E-3
8.580000E-8	9.811776E-3
8.585000E-8	9.748397E-3
8.590000E-8	9.714138E-3
8.595000E-8	9.715851E-3
8.600000E-8	9.732981E-3
8.605000E-8	9.768953E-3
8.610000E-8	9.851174E-3
8.615000E-8	9.935109E-3
8.620000E-8	1.002418E-2
8.625000E-8	1.009270E-2
8.630000E-8	1.014751E-2
8.635000E-8	1.019205E-2
8.640000E-8	1.020918E-2
8.645000E-8	1.017150E-2
8.650000E-8	1.012696E-2
8.655000E-8	1.008756E-2
8.660000E-8	1.001390E-2
8.665000E-8	9.965942E-3
8.670000E-8	9.940248E-3
8.675000E-8	9.888859E-3
8.680000E-8	9.861452E-3
8.685000E-8	9.828906E-3
8.690000E-8	9.789508E-3
8.695000E-8	9.767240E-3
8.700000E-8	9.753536E-3
8.705000E-8	9.707286E-3
8.710000E-8	9.703861E-3
8.715000E-8	9.661037E-3
8.720000E-8	9.618213E-3
8.725000E-8	9.565112E-3
8.730000E-8	9.494881E-3
8.735000E-8	9.393817E-3
8.740000E-8	9.246503E-3
8.745000E-8	9.099189E-3
8.750000E-8	8.960440E-3
8.755000E-8	8.843960E-3
8.760000E-8	8.732618E-3
8.765000E-8	8.674378E-3
8.770000E-8	8.643544E-3
8.775000E-8	8.660674E-3
8.780000E-8	8.705211E-3
8.785000E-8	8.773729E-3
8.790000E-8	8.842247E-3
8.795000E-8	8.888496E-3
8.800000E-8	8.917616E-3
8.805000E-8	8.943311E-3
8.810000E-8	8.982709E-3
8.815000E-8	8.979283E-3
8.820000E-8	8.989560E-3
8.825000E-8	8.975857E-3
8.830000E-8	8.999838E-3
8.835000E-8	9.049514E-3
8.840000E-8	9.085486E-3
8.845000E-8	9.154004E-3
8.850000E-8	9.244790E-3
8.855000E-8	9.320160E-3
8.860000E-8	9.378400E-3
8.865000E-8	9.429789E-3
8.870000E-8	9.431502E-3
8.875000E-8	9.422937E-3
8.880000E-8	9.390391E-3
8.885000E-8	9.318447E-3
8.890000E-8	9.249929E-3
8.895000E-8	9.169420E-3
8.900000E-8	9.080347E-3
8.905000E-8	9.016968E-3
8.910000E-8	8.967292E-3
8.915000E-8	8.939885E-3
8.920000E-8	8.934746E-3
8.925000E-8	8.982709E-3
8.930000E-8	9.013542E-3
8.935000E-8	8.994699E-3
8.940000E-8	9.015255E-3
8.945000E-8	9.015255E-3
8.950000E-8	8.999838E-3
8.955000E-8	8.977570E-3
8.960000E-8	8.957014E-3
8.965000E-8	8.945024E-3
8.970000E-8	8.921042E-3
8.975000E-8	8.914191E-3
8.980000E-8	8.910765E-3
8.985000E-8	8.900487E-3
8.990000E-8	8.951875E-3
8.995000E-8	8.986134E-3
9.000000E-8	8.992986E-3
9.005000E-8	9.020393E-3
9.010000E-8	9.011829E-3
9.015000E-8	9.016968E-3
9.020000E-8	8.943311E-3
9.025000E-8	8.837108E-3
9.030000E-8	8.737757E-3
9.035000E-8	8.609285E-3
9.040000E-8	8.468824E-3
9.045000E-8	8.335213E-3
9.050000E-8	8.280399E-3
9.055000E-8	8.271834E-3
9.060000E-8	8.347204E-3
9.065000E-8	8.437990E-3
9.070000E-8	8.515073E-3
9.075000E-8	8.587017E-3
9.080000E-8	8.665813E-3
9.085000E-8	8.742896E-3
9.090000E-8	8.790858E-3
9.095000E-8	8.813127E-3
9.100000E-8	8.749747E-3
9.105000E-8	8.677803E-3
9.110000E-8	8.604147E-3
9.115000E-8	8.499657E-3
9.120000E-8	8.420861E-3
9.125000E-8	8.333501E-3
9.130000E-8	8.318084E-3
9.135000E-8	8.268408E-3
9.140000E-8	8.251279E-3
9.145000E-8	8.316371E-3
9.150000E-8	8.403731E-3
9.155000E-8	8.487666E-3
9.160000E-8	8.580165E-3
9.165000E-8	8.698359E-3
9.170000E-8	8.804562E-3
9.175000E-8	8.855950E-3
9.180000E-8	8.903913E-3
9.185000E-8	8.929607E-3
9.190000E-8	8.869654E-3
9.195000E-8	8.811414E-3
9.200000E-8	8.763451E-3
9.205000E-8	8.693220E-3
9.210000E-8	8.617850E-3
9.215000E-8	8.527064E-3
9.220000E-8	8.456833E-3
9.225000E-8	8.395167E-3
9.230000E-8	8.388315E-3
9.235000E-8	8.345491E-3
9.240000E-8	8.355769E-3
9.245000E-8	8.328362E-3
9.250000E-8	8.306093E-3
9.255000E-8	8.306093E-3
9.260000E-8	8.336926E-3
9.265000E-8	8.396880E-3
9.270000E-8	8.426000E-3
9.275000E-8	8.501370E-3
9.280000E-8	8.542480E-3
9.285000E-8	8.569888E-3
9.290000E-8	8.573314E-3
9.295000E-8	8.610998E-3
9.300000E-8	8.638406E-3
9.305000E-8	8.660674E-3
9.310000E-8	8.674378E-3
9.315000E-8	8.641832E-3
9.320000E-8	8.629841E-3
9.325000E-8	8.626415E-3
9.330000E-8	8.626415E-3
9.335000E-8	8.641832E-3
9.340000E-8	8.655535E-3
9.345000E-8	8.674378E-3
9.350000E-8	8.698359E-3
9.355000E-8	8.756599E-3
9.360000E-8	8.837108E-3
9.365000E-8	8.912478E-3
9.370000E-8	9.010116E-3
9.375000E-8	9.066643E-3
9.380000E-8	9.112893E-3
9.385000E-8	9.159142E-3
9.390000E-8	9.148865E-3
9.395000E-8	9.111180E-3
9.400000E-8	9.030671E-3
9.405000E-8	8.900487E-3
9.410000E-8	8.792571E-3
9.415000E-8	8.636693E-3
9.420000E-8	8.492805E-3
9.425000E-8	8.354056E-3
9.430000E-8	8.263270E-3
9.435000E-8	8.230724E-3
9.440000E-8	8.169057E-3
9.445000E-8	8.167344E-3
9.450000E-8	8.187900E-3
9.455000E-8	8.208455E-3
9.460000E-8	8.259844E-3
9.465000E-8	8.306093E-3
9.470000E-8	8.383176E-3
9.475000E-8	8.470537E-3
9.480000E-8	8.525351E-3
9.485000E-8	8.602434E-3
9.490000E-8	8.631554E-3
9.495000E-8	8.643544E-3
9.500000E-8	8.617850E-3
9.505000E-8	8.583591E-3
9.510000E-8	8.492805E-3
9.515000E-8	8.391741E-3
9.520000E-8	8.297529E-3
9.525000E-8	8.193039E-3
9.530000E-8	8.093688E-3
9.535000E-8	8.033734E-3
9.540000E-8	7.958364E-3
9.545000E-8	7.900124E-3
9.550000E-8	7.833319E-3
9.555000E-8	7.805912E-3
9.560000E-8	7.768227E-3
9.565000E-8	7.761375E-3
9.570000E-8	7.776792E-3
9.575000E-8	7.787069E-3
9.580000E-8	7.816190E-3
9.585000E-8	7.853875E-3
9.590000E-8	7.924105E-3
9.595000E-8	8.006327E-3
9.600000E-8	8.117669E-3
9.605000E-8	8.175909E-3
9.610000E-8	8.254705E-3
9.615000E-8	8.330075E-3
9.620000E-8	8.390028E-3
9.625000E-8	8.432852E-3
9.630000E-8	8.436278E-3
9.635000E-8	8.405444E-3
9.640000E-8	8.330075E-3
9.645000E-8	8.220446E-3
9.650000E-8	8.136511E-3
9.655000E-8	8.057716E-3
9.660000E-8	7.992623E-3
9.665000E-8	7.949800E-3
9.670000E-8	7.930957E-3
9.675000E-8	7.934383E-3
9.680000E-8	7.941235E-3
9.685000E-8	7.953226E-3
9.690000E-8	7.934383E-3
9.695000E-8	7.948087E-3
9.700000E-8	7.956652E-3
9.705000E-8	7.936096E-3
9.710000E-8	7.917254E-3
9.715000E-8	7.936096E-3
9.720000E-8	7.960077E-3
9.725000E-8	7.985772E-3
9.730000E-8	8.040586E-3
9.735000E-8	8.103965E-3
9.740000E-8	8.201603E-3
9.745000E-8	8.280399E-3
9.750000E-8	8.347204E-3
9.755000E-8	8.400306E-3
9.760000E-8	8.419148E-3
9.765000E-8	8.393454E-3
9.770000E-8	8.343778E-3
9.775000E-8	8.222159E-3
9.780000E-8	8.081697E-3
9.785000E-8	7.877856E-3
9.790000E-8	7.651746E-3
9.795000E-8	7.413646E-3
9.800000E-8	7.194389E-3
9.805000E-8	6.999112E-3
9.810000E-8	6.829530E-3
9.815000E-8	6.750735E-3
9.820000E-8	6.719902E-3
9.825000E-8	6.771290E-3
9.830000E-8	6.894622E-3
9.835000E-8	7.052214E-3
9.840000E-8	7.226935E-3
9.845000E-8	7.375961E-3
9.850000E-8	7.557534E-3
9.855000E-8	7.682579E-3
9.860000E-8	7.759662E-3
9.865000E-8	7.826467E-3
9.870000E-8	7.823041E-3
9.875000E-8	7.759662E-3
9.880000E-8	7.648320E-3
9.885000E-8	7.548969E-3
9.890000E-8	7.430776E-3
9.895000E-8	7.322860E-3
9.900000E-8	7.238925E-3
9.905000E-8	7.166982E-3
9.910000E-8	7.160130E-3
9.915000E-8	7.197815E-3
9.920000E-8	7.252629E-3
9.925000E-8	7.331425E-3
9.930000E-8	7.399943E-3
9.935000E-8	7.446192E-3
9.940000E-8	7.470174E-3
9.945000E-8	7.490729E-3
9.950000E-8	7.494155E-3
9.955000E-8	7.495868E-3
9.960000E-8	7.485590E-3
9.965000E-8	7.475313E-3
9.970000E-8	7.454757E-3
9.975000E-8	7.453044E-3
9.980000E-8	7.489016E-3
9.985000E-8	7.518136E-3
9.990000E-8	7.538692E-3
9.995000E-8	7.548969E-3
1.000000E-7	7.543831E-3
1.000500E-7	7.523275E-3
1.001000E-7	7.471887E-3
1.001500E-7	7.408507E-3
1.002000E-7	7.309156E-3
1.002500E-7	7.208092E-3
1.003000E-7	7.131010E-3
1.003500E-7	7.065917E-3
1.004000E-7	7.016242E-3
1.004500E-7	6.983696E-3
1.005000E-7	6.949437E-3
1.005500E-7	6.999112E-3
1.006000E-7	7.065917E-3
1.006500E-7	7.146426E-3
1.007000E-7	7.230361E-3
1.007500E-7	7.298879E-3
1.008000E-7	7.338277E-3
1.008500E-7	7.351980E-3
1.009000E-7	7.355406E-3
1.009500E-7	7.329712E-3
1.010000E-7	7.261194E-3
1.010500E-7	7.196102E-3
1.011000E-7	7.122445E-3
1.011500E-7	7.035084E-3
1.012000E-7	6.944298E-3
1.012500E-7	6.865502E-3
1.013000E-7	6.766151E-3
1.013500E-7	6.682217E-3
1.014000E-7	6.644532E-3
1.014500E-7	6.620550E-3
1.015000E-7	6.605134E-3
1.015500E-7	6.598282E-3
1.016000E-7	6.605134E-3
1.016500E-7	6.599995E-3
1.017000E-7	6.617125E-3
1.017500E-7	6.682217E-3
1.018000E-7	6.767864E-3
1.018500E-7	6.848373E-3
1.019000E-7	6.923743E-3
1.019500E-7	6.961428E-3
1.020000E-7	7.016242E-3
1.020500E-7	7.107028E-3
1.021000E-7	7.175546E-3
1.021500E-7	7.261194E-3
1.022000E-7	7.381100E-3
1.022500E-7	7.456470E-3
1.023000E-7	7.574664E-3
1.023500E-7	7.679154E-3
1.024000E-7	7.733968E-3
1.024500E-7	7.814477E-3
1.025000E-7	7.850449E-3
1.025500E-7	7.843597E-3
1.026000E-7	7.857300E-3
1.026500E-7	7.814477E-3
1.027000E-7	7.752810E-3
1.027500E-7	7.668876E-3
1.028000E-7	7.574664E-3
1.028500E-7	7.471887E-3
1.029000E-7	7.377674E-3
1.029500E-7	7.304018E-3
1.030000E-7	7.240638E-3
1.030500E-7	7.172120E-3
1.031000E-7	7.115593E-3
1.031500E-7	7.115593E-3
1.032000E-7	7.074482E-3
1.032500E-7	7.074482E-3
1.033000E-7	7.107028E-3
1.033500E-7	7.132723E-3
1.034000E-7	7.139574E-3
1.034500E-7	7.148139E-3
1.035000E-7	7.173833E-3
1.035500E-7	7.202953E-3
1.036000E-7	7.218370E-3
1.036500E-7	7.178972E-3
1.037000E-7	7.134435E-3
1.037500E-7	7.033371E-3
1.038000E-7	6.927169E-3
1.038500E-7	6.850086E-3
1.039000E-7	6.750735E-3
1.039500E-7	6.718189E-3
1.040000E-7	6.704485E-3
1.040500E-7	6.711337E-3
1.041000E-7	6.713050E-3
1.041500E-7	6.735318E-3
1.042000E-7	6.778142E-3
1.042500E-7	6.817540E-3
1.043000E-7	6.908326E-3
1.043500E-7	6.976844E-3
1.044000E-7	7.016242E-3
1.044500E-7	7.060779E-3
1.045000E-7	7.083047E-3
1.045500E-7	7.100176E-3
1.046000E-7	7.065917E-3
1.046500E-7	7.076195E-3
1.047000E-7	7.065917E-3
1.047500E-7	7.038510E-3
1.048000E-7	7.052214E-3
1.048500E-7	7.071056E-3
1.049000E-7	7.113880E-3
1.049500E-7	7.160130E-3
1.050000E-7	7.168694E-3
1.050500E-7	7.189250E-3
1.051000E-7	7.197815E-3
1.051500E-7	7.182398E-3
1.052000E-7	7.177259E-3
1.052500E-7	7.182398E-3
1.053000E-7	7.173833E-3
1.053500E-7	7.187537E-3
1.054000E-7	7.143000E-3
1.054500E-7	7.143000E-3
1.055000E-7	7.117306E-3
1.055500E-7	7.124158E-3
1.056000E-7	7.146426E-3
1.056500E-7	7.139574E-3
1.057000E-7	7.173833E-3
1.057500E-7	7.261194E-3
1.058000E-7	7.304018E-3
1.058500E-7	7.314295E-3
1.059000E-7	7.346841E-3
1.059500E-7	7.334851E-3
1.060000E-7	7.348554E-3
1.060500E-7	7.346841E-3
1.061000E-7	7.302305E-3
1.061500E-7	7.256055E-3
1.062000E-7	7.187537E-3
1.062500E-7	7.112167E-3
1.063000E-7	7.005964E-3
1.063500E-7	6.886058E-3
1.064000E-7	6.752448E-3
1.064500E-7	6.641106E-3
1.065000E-7	6.510922E-3
1.065500E-7	6.435552E-3
1.066000E-7	6.401293E-3
1.066500E-7	6.355043E-3
1.067000E-7	6.356756E-3
1.067500E-7	6.372173E-3
1.068000E-7	6.380737E-3
1.068500E-7	6.423561E-3
1.069000E-7	6.485227E-3
1.069500E-7	6.528051E-3
1.070000E-7	6.565736E-3
1.070500E-7	6.622263E-3
1.071000E-7	6.728466E-3
1.071500E-7	6.790133E-3
1.072000E-7	6.853512E-3
1.072500E-7	6.913465E-3
1.073000E-7	6.947724E-3
1.073500E-7	6.951150E-3
1.074000E-7	6.985409E-3
1.074500E-7	6.968279E-3
1.075000E-7	6.944298E-3
1.075500E-7	6.894622E-3
1.076000E-7	6.791845E-3
1.076500E-7	6.699346E-3
1.077000E-7	6.586291E-3
1.077500E-7	6.425274E-3
1.078000E-7	6.295090E-3
1.078500E-7	6.188887E-3
1.079000E-7	6.070694E-3
1.079500E-7	6.044999E-3
1.080000E-7	6.056990E-3
1.080500E-7	6.086110E-3
1.081000E-7	6.158054E-3
1.081500E-7	6.267683E-3
1.082000E-7	6.391015E-3
1.082500E-7	6.486940E-3
1.083000E-7	6.610273E-3
1.083500E-7	6.677078E-3
1.084000E-7	6.714763E-3
1.084500E-7	6.726753E-3
1.085000E-7	6.666800E-3
1.085500E-7	6.594856E-3
1.086000E-7	6.502357E-3
1.086500E-7	6.406432E-3
1.087000E-7	6.283099E-3
1.087500E-7	6.144350E-3
1.088000E-7	6.015879E-3
1.088500E-7	5.901111E-3
1.089000E-7	5.824029E-3
1.089500E-7	5.755511E-3
1.090000E-7	5.741807E-3
1.090500E-7	5.705835E-3
1.091000E-7	5.704122E-3
1.091500E-7	5.721252E-3
1.092000E-7	5.719539E-3
1.092500E-7	5.753798E-3
1.093000E-7	5.776066E-3
1.093500E-7	5.782918E-3
1.094000E-7	5.757224E-3
1.094500E-7	5.806899E-3
1.095000E-7	5.800047E-3
1.095500E-7	5.805186E-3
1.096000E-7	5.822316E-3
1.096500E-7	5.848010E-3
1.097000E-7	5.907963E-3
1.097500E-7	6.002175E-3
1.098000E-7	6.128934E-3
1.098500E-7	6.264257E-3
1.099000E-7	6.430413E-3
1.099500E-7	6.601708E-3
1.100000E-7	6.755874E-3
1.100500E-7	6.860363E-3
1.101000E-7	6.952863E-3
1.101500E-7	6.963140E-3
1.102000E-7	6.887771E-3
1.102500E-7	6.781568E-3
1.103000E-7	6.630828E-3
1.103500E-7	6.444117E-3
1.104000E-7	6.243701E-3
1.104500E-7	6.041573E-3
1.105000E-7	5.868565E-3
1.105500E-7	5.745233E-3
1.106000E-7	5.692132E-3
1.106500E-7	5.722965E-3
1.107000E-7	5.794909E-3
1.107500E-7	5.890834E-3
1.108000E-7	6.012453E-3
1.108500E-7	6.149489E-3
1.109000E-7	6.257405E-3
1.109500E-7	6.322497E-3
1.110000E-7	6.363608E-3
1.110500E-7	6.389302E-3
1.111000E-7	6.375599E-3
1.111500E-7	6.293377E-3
1.112000E-7	6.206017E-3
1.112500E-7	6.118656E-3
1.113000E-7	6.053564E-3
1.113500E-7	6.039860E-3
1.114000E-7	6.014166E-3
1.114500E-7	6.021018E-3
1.115000E-7	6.041573E-3
1.115500E-7	6.051851E-3
1.116000E-7	6.060416E-3
1.116500E-7	6.130647E-3
1.117000E-7	6.197452E-3
1.117500E-7	6.262544E-3
1.118000E-7	6.332775E-3
1.118500E-7	6.391015E-3
1.119000E-7	6.426987E-3
1.119500E-7	6.473237E-3
1.120000E-7	6.531477E-3
1.120500E-7	6.536616E-3
1.121000E-7	6.570875E-3
1.121500E-7	6.555458E-3
1.122000E-7	6.533190E-3
1.122500E-7	6.471524E-3
1.123000E-7	6.423561E-3
1.123500E-7	6.329349E-3
1.124000E-7	6.252266E-3
1.124500E-7	6.170045E-3
1.125000E-7	6.106665E-3
1.125500E-7	6.067268E-3
1.126000E-7	6.031296E-3
1.126500E-7	6.060416E-3
1.127000E-7	6.128934E-3
1.127500E-7	6.216294E-3
1.128000E-7	6.296803E-3
1.128500E-7	6.399580E-3
1.129000E-7	6.492079E-3
1.129500E-7	6.574301E-3
1.130000E-7	6.593143E-3
1.130500E-7	6.618838E-3
1.131000E-7	6.581153E-3
1.131500E-7	6.572588E-3
1.132000E-7	6.524625E-3
1.132500E-7	6.486940E-3
1.133000E-7	6.474950E-3
1.133500E-7	6.490366E-3
1.134000E-7	6.533190E-3
1.134500E-7	6.562310E-3
1.135000E-7	6.615412E-3
1.135500E-7	6.651384E-3
1.136000E-7	6.677078E-3
1.136500E-7	6.632541E-3
1.137000E-7	6.589717E-3
1.137500E-7	6.504070E-3
1.138000E-7	6.358469E-3
1.138500E-7	6.192313E-3
1.139000E-7	6.039860E-3
1.139500E-7	5.887408E-3
1.140000E-7	5.728103E-3
1.140500E-7	5.596206E-3
1.141000E-7	5.505420E-3
1.141500E-7	5.472874E-3
1.142000E-7	5.448893E-3
1.142500E-7	5.455744E-3
1.143000E-7	5.507133E-3
1.143500E-7	5.568799E-3
1.144000E-7	5.623614E-3
1.144500E-7	5.642456E-3
1.145000E-7	5.657873E-3
1.145500E-7	5.580790E-3
1.146000E-7	5.553383E-3
1.146500E-7	5.537966E-3
1.147000E-7	5.501994E-3
1.147500E-7	5.498568E-3
1.148000E-7	5.496855E-3
1.148500E-7	5.537966E-3
1.149000E-7	5.563660E-3
1.149500E-7	5.618475E-3
1.150000E-7	5.675002E-3
1.150500E-7	5.750372E-3
1.151000E-7	5.834306E-3
1.151500E-7	5.892547E-3
1.152000E-7	5.940509E-3
1.152500E-7	5.954213E-3
1.153000E-7	5.943935E-3
1.153500E-7	5.878843E-3
1.154000E-7	5.796621E-3
1.154500E-7	5.726391E-3
1.155000E-7	5.644169E-3
1.155500E-7	5.537966E-3
1.156000E-7	5.476300E-3
1.156500E-7	5.438615E-3
1.157000E-7	5.404356E-3
1.157500E-7	5.358106E-3
1.158000E-7	5.344403E-3
1.158500E-7	5.373523E-3
1.159000E-7	5.376949E-3
1.159500E-7	5.418060E-3
1.160000E-7	5.471161E-3
1.160500E-7	5.500281E-3
1.161000E-7	5.496855E-3
1.161500E-7	5.450606E-3
1.162000E-7	5.411208E-3
1.162500E-7	5.352967E-3
1.163000E-7	5.270746E-3
1.163500E-7	5.171395E-3
1.164000E-7	5.065192E-3
1.164500E-7	4.943572E-3
1.165000E-7	4.840795E-3
1.165500E-7	4.801398E-3
1.166000E-7	4.794546E-3
1.166500E-7	4.815101E-3
1.167000E-7	4.881906E-3
1.167500E-7	4.974405E-3
1.168000E-7	5.077182E-3
1.168500E-7	5.202228E-3
1.169000E-7	5.361532E-3
1.169500E-7	5.512272E-3
1.170000E-7	5.678428E-3
1.170500E-7	5.815464E-3
1.171000E-7	5.916528E-3
1.171500E-7	6.014166E-3
1.172000E-7	6.092962E-3
1.172500E-7	6.123795E-3
1.173000E-7	6.094675E-3
1.173500E-7	6.034722E-3
1.174000E-7	5.890834E-3
1.174500E-7	5.728103E-3
1.175000E-7	5.597919E-3
1.175500E-7	5.418060E-3
1.176000E-7	5.246765E-3
1.176500E-7	5.138849E-3
1.177000E-7	5.054914E-3
1.177500E-7	5.058340E-3
1.178000E-7	5.114867E-3
1.178500E-7	5.157691E-3
1.179000E-7	5.234774E-3
1.179500E-7	5.301579E-3
1.180000E-7	5.409495E-3
1.180500E-7	5.513985E-3
1.181000E-7	5.601345E-3
1.181500E-7	5.663011E-3
1.182000E-7	5.692132E-3
1.182500E-7	5.698983E-3
1.183000E-7	5.700696E-3
1.183500E-7	5.681854E-3
1.184000E-7	5.639030E-3
1.184500E-7	5.582503E-3
1.185000E-7	5.531114E-3
1.185500E-7	5.448893E-3
1.186000E-7	5.390652E-3
1.186500E-7	5.351254E-3
1.187000E-7	5.337551E-3
1.187500E-7	5.351254E-3
1.188000E-7	5.364958E-3
1.188500E-7	5.399217E-3
1.189000E-7	5.442041E-3
1.189500E-7	5.522549E-3
1.190000E-7	5.573938E-3
1.190500E-7	5.661298E-3
1.191000E-7	5.705835E-3
1.191500E-7	5.752085E-3
1.192000E-7	5.786344E-3
1.192500E-7	5.808612E-3
1.193000E-7	5.796621E-3
1.193500E-7	5.825742E-3
1.194000E-7	5.827455E-3
1.194500E-7	5.824029E-3
1.195000E-7	5.815464E-3
1.195500E-7	5.776066E-3
1.196000E-7	5.731529E-3
1.196500E-7	5.676715E-3
1.197000E-7	5.585929E-3
1.197500E-7	5.537966E-3
1.198000E-7	5.488290E-3
1.198500E-7	5.404356E-3
1.199000E-7	5.320421E-3
1.199500E-7	5.248477E-3
1.200000E-7	5.222783E-3
1.200500E-7	5.191950E-3
1.201000E-7	5.161117E-3
1.201500E-7	5.161117E-3
1.202000E-7	5.191950E-3
1.202500E-7	5.262181E-3
1.203000E-7	5.349542E-3
1.203500E-7	5.433476E-3
1.204000E-7	5.476300E-3
1.204500E-7	5.498568E-3
1.205000E-7	5.527688E-3
1.205500E-7	5.555096E-3
1.206000E-7	5.575651E-3
1.206500E-7	5.591067E-3
1.207000E-7	5.585929E-3
1.207500E-7	5.558521E-3
1.208000E-7	5.505420E-3
1.208500E-7	5.466022E-3
1.209000E-7	5.460883E-3
1.209500E-7	5.472874E-3
1.210000E-7	5.512272E-3
1.210500E-7	5.579077E-3
1.211000E-7	5.686993E-3
1.211500E-7	5.779492E-3
1.212000E-7	5.836019E-3
1.212500E-7	5.894260E-3
1.213000E-7	5.918241E-3
1.213500E-7	5.887408E-3
1.214000E-7	5.824029E-3
1.214500E-7	5.721252E-3
1.215000E-7	5.549957E-3
1.215500E-7	5.364958E-3
1.216000E-7	5.179959E-3
1.216500E-7	4.976118E-3
1.217000E-7	4.782555E-3
1.217500E-7	4.671213E-3
1.218000E-7	4.578714E-3
1.218500E-7	4.566723E-3
1.219000E-7	4.623251E-3
1.219500E-7	4.705472E-3
1.220000E-7	4.821953E-3
1.220500E-7	4.958989E-3
1.221000E-7	5.097738E-3
1.221500E-7	5.236487E-3
1.222000E-7	5.328986E-3
1.222500E-7	5.380375E-3
1.223000E-7	5.435189E-3
1.223500E-7	5.448893E-3
1.224000E-7	5.402643E-3
1.224500E-7	5.342690E-3
1.225000E-7	5.299866E-3
1.225500E-7	5.281024E-3
1.226000E-7	5.229635E-3
1.226500E-7	5.193663E-3
1.227000E-7	5.157691E-3
1.227500E-7	5.171395E-3
1.228000E-7	5.253616E-3
1.228500E-7	5.310144E-3
1.229000E-7	5.419772E-3
1.229500E-7	5.513985E-3
1.230000E-7	5.608197E-3
1.230500E-7	5.681854E-3
1.231000E-7	5.746946E-3
1.231500E-7	5.776066E-3
1.232000E-7	5.758937E-3
1.232500E-7	5.712687E-3
1.233000E-7	5.628752E-3
1.233500E-7	5.471161E-3
1.234000E-7	5.327273E-3
1.234500E-7	5.143988E-3
1.235000E-7	4.974405E-3
1.235500E-7	4.854499E-3
1.236000E-7	4.726028E-3
1.236500E-7	4.672926E-3
1.237000E-7	4.674639E-3
1.237500E-7	4.729454E-3
1.238000E-7	4.852786E-3
1.238500E-7	4.998387E-3
1.239000E-7	5.150839E-3
1.239500E-7	5.311857E-3
1.240000E-7	5.423198E-3
1.240500E-7	5.539679E-3
1.241000E-7	5.572225E-3
1.241500E-7	5.587642E-3
1.242000E-7	5.582503E-3
1.242500E-7	5.517411E-3
1.243000E-7	5.440328E-3
1.243500E-7	5.349542E-3
1.244000E-7	5.248477E-3
1.244500E-7	5.137136E-3
1.245000E-7	5.089173E-3
1.245500E-7	5.037785E-3
1.246000E-7	4.991535E-3
1.246500E-7	4.977831E-3
1.247000E-7	4.958989E-3
1.247500E-7	4.924730E-3
1.248000E-7	4.928156E-3
1.248500E-7	4.928156E-3
1.249000E-7	4.912739E-3
1.249500E-7	4.912739E-3
1.250000E-7	4.911026E-3
1.250500E-7	4.897323E-3
1.251000E-7	4.902462E-3
1.251500E-7	4.893897E-3
1.252000E-7	4.859638E-3
1.252500E-7	4.847647E-3
1.253000E-7	4.863064E-3
1.253500E-7	4.856212E-3
1.254000E-7	4.866490E-3
1.254500E-7	4.861351E-3
1.255000E-7	4.851073E-3
1.255500E-7	4.832231E-3
1.256000E-7	4.849360E-3
1.256500E-7	4.852786E-3
1.257000E-7	4.875054E-3
1.257500E-7	4.892184E-3
1.258000E-7	4.888758E-3
1.258500E-7	4.876767E-3
1.259000E-7	4.919591E-3
1.259500E-7	4.958989E-3
1.260000E-7	4.972693E-3
1.260500E-7	5.003526E-3
1.261000E-7	5.032646E-3
1.261500E-7	5.075470E-3
1.262000E-7	5.125145E-3
1.262500E-7	5.197089E-3
1.263000E-7	5.257042E-3
1.263500E-7	5.284449E-3
1.264000E-7	5.298153E-3
1.264500E-7	5.320421E-3
1.265000E-7	5.344403E-3
1.265500E-7	5.325560E-3
1.266000E-7	5.289588E-3
1.266500E-7	5.214218E-3
1.267000E-7	5.135423E-3
1.267500E-7	5.034359E-3
1.268000E-7	4.941859E-3
1.268500E-7	4.897323E-3
1.269000E-7	4.861351E-3
1.269500E-7	4.892184E-3
1.270000E-7	4.919591E-3
1.270500E-7	4.972693E-3
1.271000E-7	5.029220E-3
1.271500E-7	5.090886E-3
1.272000E-7	5.138849E-3
1.272500E-7	5.142275E-3
1.273000E-7	5.104590E-3
1.273500E-7	5.042923E-3
1.274000E-7	4.958989E-3
1.274500E-7	4.854499E-3
1.275000E-7	4.755148E-3
1.275500E-7	4.679778E-3
1.276000E-7	4.642093E-3
1.276500E-7	4.636954E-3
1.277000E-7	4.662649E-3
1.277500E-7	4.750009E-3
1.278000E-7	4.864777E-3
1.278500E-7	4.970980E-3
1.279000E-7	5.092599E-3
1.279500E-7	5.210793E-3
1.280000E-7	5.293014E-3
1.280500E-7	5.310144E-3
1.281000E-7	5.303292E-3
1.281500E-7	5.265607E-3
1.282000E-7	5.212506E-3
1.282500E-7	5.113154E-3
1.283000E-7	5.018942E-3
1.283500E-7	4.969267E-3
1.284000E-7	4.895610E-3
1.284500E-7	4.857925E-3
1.285000E-7	4.857925E-3
1.285500E-7	4.871628E-3
1.286000E-7	4.921304E-3
1.286500E-7	4.976118E-3
1.287000E-7	5.018942E-3
1.287500E-7	5.048062E-3
1.288000E-7	5.041211E-3
1.288500E-7	5.012090E-3
1.289000E-7	4.981257E-3
1.289500E-7	4.921304E-3
1.290000E-7	4.832231E-3
1.290500E-7	4.765426E-3
1.291000E-7	4.684917E-3
1.291500E-7	4.600982E-3
1.292000E-7	4.573575E-3
1.292500E-7	4.558159E-3
1.293000E-7	4.551307E-3
1.293500E-7	4.546168E-3
1.294000E-7	4.547881E-3
1.294500E-7	4.551307E-3
1.295000E-7	4.535890E-3
1.295500E-7	4.535890E-3
1.296000E-7	4.559872E-3
1.296500E-7	4.585566E-3
1.297000E-7	4.607834E-3
1.297500E-7	4.635241E-3
1.298000E-7	4.678065E-3
1.298500E-7	4.748296E-3
1.299000E-7	4.813388E-3
1.299500E-7	4.900749E-3
1.300000E-7	4.957276E-3
1.300500E-7	4.998387E-3
1.301000E-7	5.070331E-3
1.301500E-7	5.078895E-3
1.302000E-7	5.029220E-3
1.302500E-7	4.984683E-3
1.303000E-7	4.902462E-3
1.303500E-7	4.821953E-3
1.304000E-7	4.707185E-3
1.304500E-7	4.619825E-3
1.305000E-7	4.534177E-3
1.305500E-7	4.474224E-3
1.306000E-7	4.455382E-3
1.306500E-7	4.421123E-3
1.307000E-7	4.434826E-3
1.307500E-7	4.439965E-3
1.308000E-7	4.463946E-3
1.308500E-7	4.467372E-3
1.309000E-7	4.510196E-3
1.309500E-7	4.535890E-3
1.310000E-7	4.553020E-3
1.310500E-7	4.594131E-3
1.311000E-7	4.614686E-3
1.311500E-7	4.647232E-3
1.312000E-7	4.655797E-3
1.312500E-7	4.657510E-3
1.313000E-7	4.667787E-3
1.313500E-7	4.666074E-3
1.314000E-7	4.688343E-3
1.314500E-7	4.666074E-3
1.315000E-7	4.650658E-3
1.315500E-7	4.612973E-3
1.316000E-7	4.561585E-3
1.316500E-7	4.539316E-3
1.317000E-7	4.537603E-3
1.317500E-7	4.558159E-3
1.318000E-7	4.587279E-3
1.318500E-7	4.633528E-3
1.319000E-7	4.719176E-3
1.319500E-7	4.816814E-3
1.320000E-7	4.909313E-3
1.320500E-7	4.974405E-3
1.321000E-7	5.020655E-3
1.321500E-7	5.049775E-3
1.322000E-7	5.068618E-3
1.322500E-7	5.070331E-3
1.323000E-7	5.051488E-3
1.323500E-7	5.017229E-3
1.324000E-7	4.931582E-3
1.324500E-7	4.849360E-3
1.325000E-7	4.775703E-3
1.325500E-7	4.640380E-3
1.326000E-7	4.537603E-3
1.326500E-7	4.445104E-3
1.327000E-7	4.373160E-3
1.327500E-7	4.326910E-3
1.328000E-7	4.314920E-3
1.328500E-7	4.350892E-3
1.329000E-7	4.369734E-3
1.329500E-7	4.403993E-3
1.330000E-7	4.453669E-3
1.330500E-7	4.491354E-3
1.331000E-7	4.498205E-3
1.331500E-7	4.494779E-3
1.332000E-7	4.469085E-3
1.332500E-7	4.433113E-3
1.333000E-7	4.350892E-3
1.333500E-7	4.280661E-3
1.334000E-7	4.167606E-3
1.334500E-7	4.056264E-3
1.335000E-7	3.941497E-3
1.335500E-7	3.848997E-3
1.336000E-7	3.768489E-3
1.336500E-7	3.710248E-3
1.337000E-7	3.756498E-3
1.337500E-7	3.795896E-3
1.338000E-7	3.884969E-3
1.338500E-7	4.056264E-3
1.339000E-7	4.227559E-3
1.339500E-7	4.366308E-3
1.340000E-7	4.517048E-3
1.340500E-7	4.691769E-3
1.341000E-7	4.837369E-3
1.341500E-7	4.989822E-3
1.342000E-7	5.094312E-3
1.342500E-7	5.183385E-3
1.343000E-7	5.267320E-3
1.343500E-7	5.311857E-3
1.344000E-7	5.296440E-3
1.344500E-7	5.282736E-3
1.345000E-7	5.270746E-3
1.345500E-7	5.226209E-3
1.346000E-7	5.143988E-3
1.346500E-7	5.048062E-3
1.347000E-7	4.938434E-3
1.347500E-7	4.801398E-3
1.348000E-7	4.667787E-3
1.348500E-7	4.541029E-3
1.349000E-7	4.381725E-3
1.349500E-7	4.253253E-3
1.350000E-7	4.097375E-3
1.350500E-7	3.975756E-3
1.351000E-7	3.924367E-3
1.351500E-7	3.874692E-3
1.352000E-7	3.871266E-3
1.352500E-7	3.953487E-3
1.353000E-7	4.051125E-3
1.353500E-7	4.153902E-3
1.354000E-7	4.280661E-3
1.354500E-7	4.414271E-3
1.355000E-7	4.534177E-3
1.355500E-7	4.645519E-3
1.356000E-7	4.739731E-3
1.356500E-7	4.808249E-3
1.357000E-7	4.863064E-3
1.357500E-7	4.892184E-3
1.358000E-7	4.933295E-3
1.358500E-7	4.946998E-3
1.359000E-7	4.953850E-3
1.359500E-7	4.905887E-3
1.360000E-7	4.868203E-3
1.360500E-7	4.832231E-3
1.361000E-7	4.809962E-3
1.361500E-7	4.755148E-3
1.362000E-7	4.662649E-3
1.362500E-7	4.590705E-3
1.363000E-7	4.511909E-3
1.363500E-7	4.470798E-3
1.364000E-7	4.450243E-3
1.364500E-7	4.441678E-3
1.365000E-7	4.445104E-3
1.365500E-7	4.494779E-3
1.366000E-7	4.520474E-3
1.366500E-7	4.561585E-3
1.367000E-7	4.599269E-3
1.367500E-7	4.621538E-3
1.368000E-7	4.599269E-3
1.368500E-7	4.554733E-3
1.369000E-7	4.510196E-3
1.369500E-7	4.469085E-3
1.370000E-7	4.378299E-3
1.370500E-7	4.275522E-3
1.371000E-7	4.193300E-3
1.371500E-7	4.123069E-3
1.372000E-7	4.061403E-3
1.372500E-7	3.998024E-3
1.373000E-7	3.934645E-3
1.373500E-7	3.896960E-3
1.374000E-7	3.895247E-3
1.374500E-7	3.912376E-3
1.375000E-7	3.898673E-3
1.375500E-7	3.908951E-3
1.376000E-7	3.953487E-3
1.376500E-7	4.015153E-3
1.377000E-7	4.111079E-3
1.377500E-7	4.218994E-3
1.378000E-7	4.296077E-3
1.378500E-7	4.397141E-3
1.379000E-7	4.496492E-3
1.379500E-7	4.590705E-3
1.380000E-7	4.667787E-3
1.380500E-7	4.708898E-3
1.381000E-7	4.738018E-3
1.381500E-7	4.762000E-3
1.382000E-7	4.727741E-3
1.382500E-7	4.643806E-3
1.383000E-7	4.577001E-3
1.383500E-7	4.510196E-3
1.384000E-7	4.421123E-3
1.384500E-7	4.386864E-3
1.385000E-7	4.333762E-3
1.385500E-7	4.273809E-3
1.386000E-7	4.208717E-3
1.386500E-7	4.186448E-3
1.387000E-7	4.155615E-3
1.387500E-7	4.111079E-3
1.388000E-7	4.054551E-3
1.388500E-7	4.076820E-3
1.389000E-7	4.093949E-3
1.389500E-7	4.169319E-3
1.390000E-7	4.244689E-3
1.390500E-7	4.335475E-3
1.391000E-7	4.426261E-3
1.391500E-7	4.496492E-3
1.392000E-7	4.559872E-3
1.392500E-7	4.561585E-3
1.393000E-7	4.529038E-3
1.393500E-7	4.438252E-3
1.394000E-7	4.321771E-3
1.394500E-7	4.172745E-3
1.395000E-7	4.037422E-3
1.395500E-7	3.898673E-3
1.396000E-7	3.797609E-3
1.396500E-7	3.742794E-3
1.397000E-7	3.785618E-3
1.397500E-7	3.857562E-3
1.398000E-7	3.986033E-3
1.398500E-7	4.171032E-3
1.399000E-7	4.352605E-3
1.399500E-7	4.511909E-3
1.400000E-7	4.655797E-3
1.400500E-7	4.767139E-3
1.401000E-7	4.794546E-3
1.401500E-7	4.743157E-3
1.402000E-7	4.642093E-3
1.402500E-7	4.481076E-3
1.403000E-7	4.301216E-3
1.403500E-7	4.126495E-3
1.404000E-7	3.987746E-3
1.404500E-7	3.864414E-3
1.405000E-7	3.771915E-3
1.405500E-7	3.708535E-3
1.406000E-7	3.705109E-3
1.406500E-7	3.737656E-3
1.407000E-7	3.811312E-3
1.407500E-7	3.884969E-3
1.408000E-7	3.970617E-3
1.408500E-7	4.095662E-3
1.409000E-7	4.188161E-3
1.409500E-7	4.236124E-3
1.410000E-7	4.275522E-3
1.410500E-7	4.292651E-3
1.411000E-7	4.275522E-3
1.411500E-7	4.290938E-3
1.412000E-7	4.285800E-3
1.412500E-7	4.282374E-3
1.413000E-7	4.301216E-3
1.413500E-7	4.333762E-3
1.414000E-7	4.388577E-3
1.414500E-7	4.415984E-3
1.415000E-7	4.445104E-3
1.415500E-7	4.446817E-3
1.416000E-7	4.448530E-3
1.416500E-7	4.412558E-3
1.417000E-7	4.390289E-3
1.417500E-7	4.383438E-3
1.418000E-7	4.366308E-3
1.418500E-7	4.386864E-3
1.419000E-7	4.424549E-3
1.419500E-7	4.460520E-3
1.420000E-7	4.510196E-3
1.420500E-7	4.553020E-3
1.421000E-7	4.573575E-3
1.421500E-7	4.577001E-3
1.422000E-7	4.573575E-3
1.422500E-7	4.547881E-3
1.423000E-7	4.503344E-3
1.423500E-7	4.463946E-3
1.424000E-7	4.407419E-3
1.424500E-7	4.369734E-3
1.425000E-7	4.354318E-3
1.425500E-7	4.314920E-3
1.426000E-7	4.323484E-3
1.426500E-7	4.373160E-3
1.427000E-7	4.426261E-3
1.427500E-7	4.513622E-3
1.428000E-7	4.599269E-3
1.428500E-7	4.674639E-3
1.429000E-7	4.726028E-3
1.429500E-7	4.748296E-3
1.430000E-7	4.726028E-3
1.430500E-7	4.671213E-3
1.431000E-7	4.606121E-3
1.431500E-7	4.482789E-3
1.432000E-7	4.328623E-3
1.432500E-7	4.145338E-3
1.433000E-7	3.951774E-3
1.433500E-7	3.758211E-3
1.434000E-7	3.604045E-3
1.434500E-7	3.514972E-3
1.435000E-7	3.453306E-3
1.435500E-7	3.444741E-3
1.436000E-7	3.461871E-3
1.436500E-7	3.537240E-3
1.437000E-7	3.616036E-3
1.437500E-7	3.717100E-3
1.438000E-7	3.835294E-3
1.438500E-7	3.938071E-3
1.439000E-7	4.054551E-3
1.439500E-7	4.141912E-3
1.440000E-7	4.227559E-3
1.440500E-7	4.304642E-3
1.441000E-7	4.380012E-3
1.441500E-7	4.414271E-3
1.442000E-7	4.434826E-3
1.442500E-7	4.463946E-3
1.443000E-7	4.477650E-3
1.443500E-7	4.481076E-3
1.444000E-7	4.479363E-3
1.444500E-7	4.503344E-3
1.445000E-7	4.506770E-3
1.445500E-7	4.493067E-3
1.446000E-7	4.479363E-3
1.446500E-7	4.451956E-3
1.447000E-7	4.441678E-3
1.447500E-7	4.445104E-3
1.448000E-7	4.414271E-3
1.448500E-7	4.400567E-3
1.449000E-7	4.417697E-3
1.449500E-7	4.429687E-3
1.450000E-7	4.431400E-3
1.450500E-7	4.419410E-3
1.451000E-7	4.403993E-3
1.451500E-7	4.362882E-3
1.452000E-7	4.309781E-3
1.452500E-7	4.263531E-3
1.453000E-7	4.191587E-3
1.453500E-7	4.119643E-3
1.454000E-7	4.049412E-3
1.454500E-7	3.989459E-3
1.455000E-7	3.938071E-3
1.455500E-7	3.920941E-3
1.456000E-7	3.907238E-3
1.456500E-7	3.896960E-3
1.457000E-7	3.946635E-3
1.457500E-7	3.974043E-3
1.458000E-7	4.025431E-3
1.458500E-7	4.117930E-3
1.459000E-7	4.186448E-3
1.459500E-7	4.260105E-3
1.460000E-7	4.321771E-3
1.460500E-7	4.386864E-3
1.461000E-7	4.400567E-3
1.461500E-7	4.417697E-3
1.462000E-7	4.431400E-3
1.462500E-7	4.463946E-3
1.463000E-7	4.511909E-3
1.463500E-7	4.563297E-3
1.464000E-7	4.570149E-3
1.464500E-7	4.583853E-3
1.465000E-7	4.611260E-3
1.465500E-7	4.602695E-3
1.466000E-7	4.587279E-3
1.466500E-7	4.588992E-3
1.467000E-7	4.565010E-3
1.467500E-7	4.479363E-3
1.468000E-7	4.362882E-3
1.468500E-7	4.277235E-3
1.469000E-7	4.147051E-3
1.469500E-7	3.999737E-3
1.470000E-7	3.902099E-3
1.470500E-7	3.816451E-3
1.471000E-7	3.763350E-3
1.471500E-7	3.725665E-3
1.472000E-7	3.744507E-3
1.472500E-7	3.770202E-3
1.473000E-7	3.825016E-3
1.473500E-7	3.888395E-3
1.474000E-7	3.951774E-3
1.474500E-7	3.979181E-3
1.475000E-7	4.016866E-3
1.475500E-7	4.032283E-3
1.476000E-7	4.015153E-3
1.476500E-7	3.989459E-3
1.477000E-7	3.956913E-3
1.477500E-7	3.898673E-3
1.478000E-7	3.797609E-3
1.478500E-7	3.735943E-3
1.479000E-7	3.646869E-3
1.479500E-7	3.569786E-3
1.480000E-7	3.473861E-3
1.480500E-7	3.415621E-3
1.481000E-7	3.410482E-3
1.481500E-7	3.410482E-3
1.482000E-7	3.458445E-3
1.482500E-7	3.556083E-3
1.483000E-7	3.665712E-3
1.483500E-7	3.771915E-3
1.484000E-7	3.915802E-3
1.484500E-7	4.047699E-3
1.485000E-7	4.198439E-3
1.485500E-7	4.340614E-3
1.486000E-7	4.455382E-3
1.486500E-7	4.517048E-3
1.487000E-7	4.600982E-3
1.487500E-7	4.635241E-3
1.488000E-7	4.648945E-3
1.488500E-7	4.655797E-3
1.489000E-7	4.621538E-3
1.489500E-7	4.575288E-3
1.490000E-7	4.460520E-3
1.490500E-7	4.376586E-3
1.491000E-7	4.289225E-3
1.491500E-7	4.159041E-3
1.492000E-7	4.054551E-3
1.492500E-7	3.907238E-3
1.493000E-7	3.797609E-3
1.493500E-7	3.669138E-3
1.494000E-7	3.581777E-3
1.494500E-7	3.473861E-3
1.495000E-7	3.391640E-3
1.495500E-7	3.302566E-3
1.496000E-7	3.259742E-3
1.496500E-7	3.266594E-3
1.497000E-7	3.285437E-3
1.497500E-7	3.350529E-3
1.498000E-7	3.427612E-3
1.498500E-7	3.499555E-3
1.499000E-7	3.605758E-3
1.499500E-7	3.737656E-3
1.500000E-7	3.854136E-3
1.500500E-7	3.975756E-3
1.501000E-7	4.087097E-3
1.501500E-7	4.172745E-3
1.502000E-7	4.218994E-3
1.502500E-7	4.308068E-3
1.503000E-7	4.347466E-3
1.503500E-7	4.362882E-3
1.504000E-7	4.395428E-3
1.504500E-7	4.393715E-3
1.505000E-7	4.362882E-3
1.505500E-7	4.297790E-3
1.506000E-7	4.234411E-3
1.506500E-7	4.159041E-3
1.507000E-7	4.081958E-3
1.507500E-7	3.984320E-3
1.508000E-7	3.881543E-3
1.508500E-7	3.818164E-3
1.509000E-7	3.775340E-3
1.509500E-7	3.754785E-3
1.510000E-7	3.756498E-3
1.510500E-7	3.804461E-3
1.511000E-7	3.881543E-3
1.511500E-7	3.986033E-3
1.512000E-7	4.078533E-3
1.512500E-7	4.150476E-3
1.513000E-7	4.237837E-3
1.513500E-7	4.306355E-3
1.514000E-7	4.320059E-3
1.514500E-7	4.285800E-3
1.515000E-7	4.217282E-3
1.515500E-7	4.109366E-3
1.516000E-7	3.955200E-3
1.516500E-7	3.771915E-3
1.517000E-7	3.657147E-3
1.517500E-7	3.549231E-3
1.518000E-7	3.456732E-3
1.518500E-7	3.407056E-3
1.519000E-7	3.419047E-3
1.519500E-7	3.448167E-3
1.520000E-7	3.506407E-3
1.520500E-7	3.616036E-3
1.521000E-7	3.723952E-3
1.521500E-7	3.866127E-3
1.522000E-7	3.992885E-3
1.522500E-7	4.102514E-3
1.523000E-7	4.162467E-3
1.523500E-7	4.215569E-3
1.524000E-7	4.213856E-3
1.524500E-7	4.207004E-3
1.525000E-7	4.186448E-3
1.525500E-7	4.165893E-3
1.526000E-7	4.153902E-3
1.526500E-7	4.196726E-3
1.527000E-7	4.289225E-3
1.527500E-7	4.385151E-3
1.528000E-7	4.544455E-3
1.528500E-7	4.690056E-3
1.529000E-7	4.849360E-3
1.529500E-7	4.977831E-3
1.530000E-7	5.082321E-3
1.530500E-7	5.114867E-3
1.531000E-7	5.078895E-3
1.531500E-7	4.996674E-3
1.532000E-7	4.842508E-3
1.532500E-7	4.635241E-3
1.533000E-7	4.362882E-3
1.533500E-7	4.111079E-3
1.534000E-7	3.854136E-3
1.534500E-7	3.607471E-3
1.535000E-7	3.422473E-3
1.535500E-7	3.280298E-3
1.536000E-7	3.172382E-3
1.536500E-7	3.143262E-3
1.537000E-7	3.184373E-3
1.537500E-7	3.297427E-3
1.538000E-7	3.407056E-3
1.538500E-7	3.586916E-3
1.539000E-7	3.729091E-3
1.539500E-7	3.830155E-3
1.540000E-7	3.953487E-3
1.540500E-7	4.044274E-3
1.541000E-7	4.135060E-3
1.541500E-7	4.201865E-3
1.542000E-7	4.294364E-3
1.542500E-7	4.345753E-3
1.543000E-7	4.373160E-3
1.543500E-7	4.424549E-3
1.544000E-7	4.439965E-3
1.544500E-7	4.427974E-3
1.545000E-7	4.446817E-3
1.545500E-7	4.424549E-3
1.546000E-7	4.421123E-3
1.546500E-7	4.373160E-3
1.547000E-7	4.308068E-3
1.547500E-7	4.242976E-3
1.548000E-7	4.128208E-3
1.548500E-7	4.028857E-3
1.549000E-7	3.914089E-3
1.549500E-7	3.811312E-3
1.550000E-7	3.701684E-3
1.550500E-7	3.657147E-3
1.551000E-7	3.607471E-3
1.551500E-7	3.622888E-3
1.552000E-7	3.636591E-3
1.552500E-7	3.705109E-3
1.553000E-7	3.768489E-3
1.553500E-7	3.843858E-3
1.554000E-7	3.879830E-3
1.554500E-7	3.932932E-3
1.555000E-7	3.987746E-3
1.555500E-7	4.051125E-3
1.556000E-7	4.069968E-3
1.556500E-7	4.076820E-3
1.557000E-7	4.073394E-3
1.557500E-7	4.071681E-3
1.558000E-7	4.069968E-3
1.558500E-7	4.090523E-3
1.559000E-7	4.131634E-3
1.559500E-7	4.150476E-3
1.560000E-7	4.215569E-3
1.560500E-7	4.234411E-3
1.561000E-7	4.282374E-3
1.561500E-7	4.277235E-3
1.562000E-7	4.272096E-3
1.562500E-7	4.196726E-3
1.563000E-7	4.126495E-3
1.563500E-7	4.045987E-3
1.564000E-7	3.939784E-3
1.564500E-7	3.809599E-3
1.565000E-7	3.711961E-3
1.565500E-7	3.660573E-3
1.566000E-7	3.628027E-3
1.566500E-7	3.624601E-3
1.567000E-7	3.658860E-3
1.567500E-7	3.727378E-3
1.568000E-7	3.789044E-3
1.568500E-7	3.891821E-3
1.569000E-7	3.974043E-3
1.569500E-7	4.049412E-3
1.570000E-7	4.095662E-3
1.570500E-7	4.128208E-3
1.571000E-7	4.135060E-3
1.571500E-7	4.133347E-3
1.572000E-7	4.126495E-3
1.572500E-7	4.104227E-3
1.573000E-7	4.093949E-3
1.573500E-7	4.083671E-3
1.574000E-7	4.069968E-3
1.574500E-7	4.078533E-3
1.575000E-7	4.073394E-3
1.575500E-7	4.068255E-3
1.576000E-7	4.059690E-3
1.576500E-7	4.044274E-3
1.577000E-7	4.018579E-3
1.577500E-7	3.992885E-3
1.578000E-7	3.991172E-3
1.578500E-7	3.979181E-3
1.579000E-7	3.941497E-3
1.579500E-7	3.953487E-3
1.580000E-7	3.987746E-3
1.580500E-7	4.040848E-3
1.581000E-7	4.099088E-3
1.581500E-7	4.171032E-3
1.582000E-7	4.203578E-3
1.582500E-7	4.207004E-3
1.583000E-7	4.218994E-3
1.583500E-7	4.189874E-3
1.584000E-7	4.145338E-3
1.584500E-7	4.090523E-3
1.585000E-7	3.996311E-3
1.585500E-7	3.896960E-3
1.586000E-7	3.818164E-3
1.586500E-7	3.723952E-3
1.587000E-7	3.641730E-3
1.587500E-7	3.568073E-3
1.588000E-7	3.518398E-3
1.588500E-7	3.494417E-3
1.589000E-7	3.477287E-3
1.589500E-7	3.437889E-3
1.590000E-7	3.419047E-3
1.590500E-7	3.405343E-3
1.591000E-7	3.371084E-3
1.591500E-7	3.341964E-3
1.592000E-7	3.294001E-3
1.592500E-7	3.266594E-3
1.593000E-7	3.242613E-3
1.593500E-7	3.239187E-3
1.594000E-7	3.240900E-3
1.594500E-7	3.270020E-3
1.595000E-7	3.343677E-3
1.595500E-7	3.408769E-3
1.596000E-7	3.513259E-3
1.596500E-7	3.578351E-3
1.597000E-7	3.663999E-3
1.597500E-7	3.765063E-3
1.598000E-7	3.845571E-3
1.598500E-7	3.910663E-3
1.599000E-7	3.987746E-3
1.599500E-7	4.010015E-3
1.600000E-7	4.045987E-3
1.600500E-7	4.068255E-3
1.601000E-7	4.071681E-3
1.601500E-7	4.056264E-3
1.602000E-7	4.044274E-3
1.602500E-7	3.980894E-3
1.603000E-7	3.919228E-3
1.603500E-7	3.842145E-3
1.604000E-7	3.770202E-3
1.604500E-7	3.701684E-3
1.605000E-7	3.628027E-3
1.605500E-7	3.561222E-3
1.606000E-7	3.544092E-3
1.606500E-7	3.528676E-3
1.607000E-7	3.593768E-3
1.607500E-7	3.679415E-3
1.608000E-7	3.753072E-3
1.608500E-7	3.826729E-3
1.609000E-7	3.896960E-3
1.609500E-7	3.938071E-3
1.610000E-7	3.936358E-3
1.610500E-7	3.910663E-3
1.611000E-7	3.843858E-3
1.611500E-7	3.780479E-3
1.612000E-7	3.691406E-3
1.612500E-7	3.600620E-3
1.613000E-7	3.494417E-3
1.613500E-7	3.396778E-3
1.614000E-7	3.333399E-3
1.614500E-7	3.294001E-3
1.615000E-7	3.278585E-3
1.615500E-7	3.297427E-3
1.616000E-7	3.285437E-3
1.616500E-7	3.321409E-3
1.617000E-7	3.352242E-3
1.617500E-7	3.374510E-3
1.618000E-7	3.379649E-3
1.618500E-7	3.365945E-3
1.619000E-7	3.376223E-3
1.619500E-7	3.365945E-3
1.620000E-7	3.396778E-3
1.620500E-7	3.413908E-3
1.621000E-7	3.456732E-3
1.621500E-7	3.509833E-3
1.622000E-7	3.593768E-3
1.622500E-7	3.722239E-3
1.623000E-7	3.852423E-3
1.623500E-7	3.980894E-3
1.624000E-7	4.088810E-3
1.624500E-7	4.186448E-3
1.625000E-7	4.265244E-3
1.625500E-7	4.328623E-3
1.626000E-7	4.366308E-3
1.626500E-7	4.381725E-3
1.627000E-7	4.371447E-3
1.627500E-7	4.345753E-3
1.628000E-7	4.272096E-3
1.628500E-7	4.179597E-3
1.629000E-7	4.150476E-3
1.629500E-7	4.105940E-3
1.630000E-7	4.052838E-3
1.630500E-7	4.018579E-3
1.631000E-7	4.039135E-3
1.631500E-7	3.991172E-3
1.632000E-7	3.984320E-3
1.632500E-7	3.951774E-3
1.633000E-7	3.963765E-3
1.633500E-7	3.943210E-3
1.634000E-7	3.958626E-3
1.634500E-7	4.018579E-3
1.635000E-7	4.076820E-3
1.635500E-7	4.107653E-3
1.636000E-7	4.147051E-3
1.636500E-7	4.145338E-3
1.637000E-7	4.153902E-3
1.637500E-7	4.116217E-3
1.638000E-7	4.056264E-3
1.638500E-7	3.953487E-3
1.639000E-7	3.840433E-3
1.639500E-7	3.751359E-3
1.640000E-7	3.619462E-3
1.640500E-7	3.523537E-3
1.641000E-7	3.465296E-3
1.641500E-7	3.446454E-3
1.642000E-7	3.453306E-3
1.642500E-7	3.482426E-3
1.643000E-7	3.545805E-3
1.643500E-7	3.600620E-3
1.644000E-7	3.677702E-3
1.644500E-7	3.694832E-3
1.645000E-7	3.741081E-3
1.645500E-7	3.717100E-3
1.646000E-7	3.669138E-3
1.646500E-7	3.605758E-3
1.647000E-7	3.525250E-3
1.647500E-7	3.441315E-3
1.648000E-7	3.338538E-3
1.648500E-7	3.246039E-3
1.649000E-7	3.198076E-3
1.649500E-7	3.165530E-3
1.650000E-7	3.156965E-3
1.650500E-7	3.196363E-3
1.651000E-7	3.232335E-3
1.651500E-7	3.285437E-3
1.652000E-7	3.333399E-3
1.652500E-7	3.424186E-3
1.653000E-7	3.542379E-3
1.653500E-7	3.663999E-3
1.654000E-7	3.794183E-3
1.654500E-7	3.883256E-3
1.655000E-7	3.968904E-3
1.655500E-7	4.025431E-3
1.656000E-7	4.078533E-3
1.656500E-7	4.105940E-3
1.657000E-7	4.138486E-3
1.657500E-7	4.128208E-3
1.658000E-7	4.121356E-3
1.658500E-7	4.093949E-3
1.659000E-7	4.073394E-3
1.659500E-7	4.052838E-3
1.660000E-7	4.040848E-3
1.660500E-7	4.052838E-3
1.661000E-7	4.069968E-3
1.661500E-7	4.102514E-3
1.662000E-7	4.147051E-3
1.662500E-7	4.218994E-3
1.663000E-7	4.304642E-3
1.663500E-7	4.357743E-3
1.664000E-7	4.415984E-3
1.664500E-7	4.503344E-3
1.665000E-7	4.566723E-3
1.665500E-7	4.645519E-3
1.666000E-7	4.645519E-3
1.666500E-7	4.609547E-3
1.667000E-7	4.539316E-3
1.667500E-7	4.457095E-3
1.668000E-7	4.359456E-3
1.668500E-7	4.248115E-3
1.669000E-7	4.141912E-3
1.669500E-7	4.025431E-3
1.670000E-7	3.905525E-3
1.670500E-7	3.818164E-3
1.671000E-7	3.790757E-3
1.671500E-7	3.802748E-3
1.672000E-7	3.854136E-3
1.672500E-7	3.977469E-3
1.673000E-7	4.097375E-3
1.673500E-7	4.237837E-3
1.674000E-7	4.383438E-3
1.674500E-7	4.505057E-3
1.675000E-7	4.559872E-3
1.675500E-7	4.592418E-3
1.676000E-7	4.573575E-3
1.676500E-7	4.505057E-3
1.677000E-7	4.390289E-3
1.677500E-7	4.256679E-3
1.678000E-7	4.121356E-3
1.678500E-7	3.980894E-3
1.679000E-7	3.855849E-3
1.679500E-7	3.729091E-3
1.680000E-7	3.640017E-3
1.680500E-7	3.586916E-3
1.681000E-7	3.562935E-3
1.681500E-7	3.628027E-3
1.682000E-7	3.662286E-3
1.682500E-7	3.684554E-3
1.683000E-7	3.701684E-3
1.683500E-7	3.694832E-3
1.684000E-7	3.694832E-3
1.684500E-7	3.653721E-3
1.685000E-7	3.605758E-3
1.685500E-7	3.564648E-3
1.686000E-7	3.506407E-3
1.686500E-7	3.468722E-3
1.687000E-7	3.420760E-3
1.687500E-7	3.383075E-3
1.688000E-7	3.364232E-3
1.688500E-7	3.369371E-3
1.689000E-7	3.369371E-3
1.689500E-7	3.389927E-3
1.690000E-7	3.371084E-3
1.690500E-7	3.383075E-3
1.691000E-7	3.362519E-3
1.691500E-7	3.345390E-3
1.692000E-7	3.329973E-3
1.692500E-7	3.275159E-3
1.693000E-7	3.218632E-3
1.693500E-7	3.179234E-3
1.694000E-7	3.148401E-3
1.694500E-7	3.124419E-3
1.695000E-7	3.144975E-3
1.695500E-7	3.186086E-3
1.696000E-7	3.249465E-3
1.696500E-7	3.355668E-3
1.697000E-7	3.492704E-3
1.697500E-7	3.646869E-3
1.698000E-7	3.818164E-3
1.698500E-7	3.968904E-3
1.699000E-7	4.095662E-3
1.699500E-7	4.188161E-3
1.700000E-7	4.282374E-3
1.700500E-7	4.306355E-3
1.701000E-7	4.314920E-3
1.701500E-7	4.272096E-3
1.702000E-7	4.165893E-3
1.702500E-7	4.042561E-3
1.703000E-7	3.927793E-3
1.703500E-7	3.823303E-3
1.704000E-7	3.713674E-3
1.704500E-7	3.631453E-3
1.705000E-7	3.574925E-3
1.705500E-7	3.545805E-3
1.706000E-7	3.511546E-3
1.706500E-7	3.516685E-3
1.707000E-7	3.525250E-3
1.707500E-7	3.542379E-3
1.708000E-7	3.549231E-3
1.708500E-7	3.542379E-3
1.709000E-7	3.554370E-3
1.709500E-7	3.556083E-3
1.710000E-7	3.545805E-3
1.710500E-7	3.550944E-3
1.711000E-7	3.573212E-3
1.711500E-7	3.617749E-3
1.712000E-7	3.653721E-3
1.712500E-7	3.722239E-3
1.713000E-7	3.761637E-3
1.713500E-7	3.825016E-3
1.714000E-7	3.835294E-3
1.714500E-7	3.823303E-3
1.715000E-7	3.785618E-3
1.715500E-7	3.730804E-3
1.716000E-7	3.650295E-3
1.716500E-7	3.532102E-3
1.717000E-7	3.415621E-3
1.717500E-7	3.292289E-3
1.718000E-7	3.191224E-3
1.718500E-7	3.110716E-3
1.719000E-7	3.033633E-3
1.719500E-7	3.004513E-3
1.720000E-7	2.970254E-3
1.720500E-7	2.959976E-3
1.721000E-7	2.961689E-3
1.721500E-7	3.001087E-3
1.722000E-7	3.078170E-3
1.722500E-7	3.170669E-3
1.723000E-7	3.256317E-3
1.723500E-7	3.362519E-3
1.724000E-7	3.468722E-3
1.724500E-7	3.576638E-3
1.725000E-7	3.686267E-3
1.725500E-7	3.775340E-3
1.726000E-7	3.845571E-3
1.726500E-7	3.919228E-3
1.727000E-7	3.992885E-3
1.727500E-7	4.075107E-3
1.728000E-7	4.100801E-3
1.728500E-7	4.121356E-3
1.729000E-7	4.147051E-3
1.729500E-7	4.160754E-3
1.730000E-7	4.138486E-3
1.730500E-7	4.111079E-3
1.731000E-7	4.081958E-3
1.731500E-7	4.011728E-3
1.732000E-7	3.917515E-3
1.732500E-7	3.809599E-3
1.733000E-7	3.730804E-3
1.733500E-7	3.634879E-3
1.734000E-7	3.533814E-3
1.734500E-7	3.415621E-3
1.735000E-7	3.348816E-3
1.735500E-7	3.300853E-3
1.736000E-7	3.275159E-3
1.736500E-7	3.299140E-3
1.737000E-7	3.362519E-3
1.737500E-7	3.446454E-3
1.738000E-7	3.566361E-3
1.738500E-7	3.701684E-3
1.739000E-7	3.828442E-3
1.739500E-7	3.939784E-3
1.740000E-7	3.999737E-3
1.740500E-7	4.025431E-3
1.741000E-7	4.037422E-3
1.741500E-7	4.004876E-3
1.742000E-7	3.965478E-3
1.742500E-7	3.914089E-3
1.743000E-7	3.830155E-3
1.743500E-7	3.770202E-3
1.744000E-7	3.718813E-3
1.744500E-7	3.669138E-3
1.745000E-7	3.703397E-3
1.745500E-7	3.730804E-3
1.746000E-7	3.797609E-3
1.746500E-7	3.888395E-3
1.747000E-7	3.980894E-3
1.747500E-7	4.054551E-3
1.748000E-7	4.133347E-3
1.748500E-7	4.213856E-3
1.749000E-7	4.254966E-3
1.749500E-7	4.296077E-3
1.750000E-7	4.282374E-3
1.750500E-7	4.275522E-3
1.751000E-7	4.289225E-3
1.751500E-7	4.277235E-3
1.752000E-7	4.285800E-3
1.752500E-7	4.335475E-3
1.753000E-7	4.385151E-3
1.753500E-7	4.426261E-3
1.754000E-7	4.475937E-3
1.754500E-7	4.510196E-3
1.755000E-7	4.508483E-3
1.755500E-7	4.487928E-3
1.756000E-7	4.458808E-3
1.756500E-7	4.366308E-3
1.757000E-7	4.289225E-3
1.757500E-7	4.167606E-3
1.758000E-7	4.076820E-3
1.758500E-7	4.013440E-3
1.759000E-7	3.968904E-3
1.759500E-7	3.946635E-3
1.760000E-7	3.953487E-3
1.760500E-7	4.010015E-3
1.761000E-7	4.039135E-3
1.761500E-7	4.099088E-3
1.762000E-7	4.131634E-3
1.762500E-7	4.138486E-3
1.763000E-7	4.140199E-3
1.763500E-7	4.138486E-3
1.764000E-7	4.117930E-3
1.764500E-7	4.075107E-3
1.765000E-7	4.066542E-3
1.765500E-7	4.088810E-3
1.766000E-7	4.124782E-3
1.766500E-7	4.157328E-3
1.767000E-7	4.212143E-3
1.767500E-7	4.277235E-3
1.768000E-7	4.323484E-3
1.768500E-7	4.332049E-3
1.769000E-7	4.373160E-3
1.769500E-7	4.373160E-3
1.770000E-7	4.374873E-3
1.770500E-7	4.333762E-3
1.771000E-7	4.296077E-3
1.771500E-7	4.249828E-3
1.772000E-7	4.210430E-3
1.772500E-7	4.184735E-3
1.773000E-7	4.177884E-3
1.773500E-7	4.193300E-3
1.774000E-7	4.213856E-3
1.774500E-7	4.289225E-3
1.775000E-7	4.338901E-3
1.775500E-7	4.409132E-3
1.776000E-7	4.419410E-3
1.776500E-7	4.421123E-3
1.777000E-7	4.403993E-3
1.777500E-7	4.373160E-3
1.778000E-7	4.318346E-3
1.778500E-7	4.263531E-3
1.779000E-7	4.213856E-3
1.779500E-7	4.159041E-3
1.780000E-7	4.141912E-3
1.780500E-7	4.107653E-3
1.781000E-7	4.102514E-3
1.781500E-7	4.124782E-3
1.782000E-7	4.176171E-3
1.782500E-7	4.239550E-3
1.783000E-7	4.290938E-3
1.783500E-7	4.320059E-3
1.784000E-7	4.356030E-3
1.784500E-7	4.374873E-3
1.785000E-7	4.364595E-3
1.785500E-7	4.373160E-3
1.786000E-7	4.364595E-3
1.786500E-7	4.381725E-3
1.787000E-7	4.374873E-3
1.787500E-7	4.361169E-3
1.788000E-7	4.337188E-3
1.788500E-7	4.326910E-3
1.789000E-7	4.316633E-3
1.789500E-7	4.306355E-3
1.790000E-7	4.249828E-3
1.790500E-7	4.227559E-3
1.791000E-7	4.184735E-3
1.791500E-7	4.169319E-3
1.792000E-7	4.147051E-3
1.792500E-7	4.135060E-3
1.793000E-7	4.095662E-3
1.793500E-7	4.085384E-3
1.794000E-7	4.035709E-3
1.794500E-7	3.980894E-3
1.795000E-7	3.934645E-3
1.795500E-7	3.902099E-3
1.796000E-7	3.878117E-3
1.796500E-7	3.850710E-3
1.797000E-7	3.867840E-3
1.797500E-7	3.862701E-3
1.798000E-7	3.869553E-3
1.798500E-7	3.884969E-3
1.799000E-7	3.907238E-3
1.799500E-7	3.922654E-3
1.800000E-7	3.924367E-3
1.800500E-7	3.927793E-3
1.801000E-7	3.938071E-3
1.801500E-7	3.898673E-3
1.802000E-7	3.850710E-3
1.802500E-7	3.802748E-3
1.803000E-7	3.730804E-3
1.803500E-7	3.663999E-3
1.804000E-7	3.621175E-3
1.804500E-7	3.556083E-3
1.805000E-7	3.566361E-3
1.805500E-7	3.588629E-3
1.806000E-7	3.600620E-3
1.806500E-7	3.633166E-3
1.807000E-7	3.662286E-3
1.807500E-7	3.694832E-3
1.808000E-7	3.708535E-3
1.808500E-7	3.751359E-3
1.809000E-7	3.756498E-3
1.809500E-7	3.758211E-3
1.810000E-7	3.741081E-3
1.810500E-7	3.753072E-3
1.811000E-7	3.739368E-3
1.811500E-7	3.744507E-3
1.812000E-7	3.765063E-3
1.812500E-7	3.785618E-3
1.813000E-7	3.787331E-3
1.813500E-7	3.797609E-3
1.814000E-7	3.809599E-3
1.814500E-7	3.804461E-3
1.815000E-7	3.799322E-3
1.815500E-7	3.830155E-3
1.816000E-7	3.843858E-3
1.816500E-7	3.883256E-3
1.817000E-7	3.931219E-3
1.817500E-7	3.948348E-3
1.818000E-7	3.931219E-3
1.818500E-7	3.881543E-3
1.819000E-7	3.814738E-3
1.819500E-7	3.787331E-3
1.820000E-7	3.741081E-3
1.820500E-7	3.686267E-3
1.821000E-7	3.607471E-3
1.821500E-7	3.554370E-3
1.822000E-7	3.472148E-3
1.822500E-7	3.405343E-3
1.823000E-7	3.386501E-3
1.823500E-7	3.381362E-3
1.824000E-7	3.417334E-3
1.824500E-7	3.458445E-3
1.825000E-7	3.504694E-3
1.825500E-7	3.590342E-3
1.826000E-7	3.646869E-3
1.826500E-7	3.705109E-3
1.827000E-7	3.759924E-3
1.827500E-7	3.775340E-3
1.828000E-7	3.782192E-3
1.828500E-7	3.782192E-3
1.829000E-7	3.778766E-3
1.829500E-7	3.727378E-3
1.830000E-7	3.677702E-3
1.830500E-7	3.614323E-3
1.831000E-7	3.550944E-3
1.831500E-7	3.525250E-3
1.832000E-7	3.526963E-3
1.832500E-7	3.561222E-3
1.833000E-7	3.588629E-3
1.833500E-7	3.663999E-3
1.834000E-7	3.718813E-3
1.834500E-7	3.763350E-3
1.835000E-7	3.785618E-3
1.835500E-7	3.787331E-3
1.836000E-7	3.773627E-3
1.836500E-7	3.717100E-3
1.837000E-7	3.677702E-3
1.837500E-7	3.592055E-3
1.838000E-7	3.499555E-3
1.838500E-7	3.401917E-3
1.839000E-7	3.319696E-3
1.839500E-7	3.230622E-3
1.840000E-7	3.155253E-3
1.840500E-7	3.083309E-3
1.841000E-7	3.004513E-3
1.841500E-7	2.982245E-3
1.842000E-7	3.016504E-3
1.842500E-7	3.025068E-3
1.843000E-7	3.107290E-3
1.843500E-7	3.201502E-3
1.844000E-7	3.324835E-3
1.844500E-7	3.470435E-3
1.845000E-7	3.607471E-3
1.845500E-7	3.715387E-3
1.846000E-7	3.782192E-3
1.846500E-7	3.848997E-3
1.847000E-7	3.919228E-3
1.847500E-7	3.982607E-3
1.848000E-7	4.015153E-3
1.848500E-7	4.032283E-3
1.849000E-7	4.037422E-3
1.849500E-7	4.045987E-3
1.850000E-7	4.063116E-3
1.850500E-7	4.088810E-3
1.851000E-7	4.153902E-3
1.851500E-7	4.217282E-3
1.852000E-7	4.251541E-3
1.852500E-7	4.299503E-3
1.853000E-7	4.330336E-3
1.853500E-7	4.330336E-3
1.854000E-7	4.299503E-3
1.854500E-7	4.236124E-3
1.855000E-7	4.152189E-3
1.855500E-7	4.052838E-3
1.856000E-7	3.910663E-3
1.856500E-7	3.787331E-3
1.857000E-7	3.681128E-3
1.857500E-7	3.607471E-3
1.858000E-7	3.564648E-3
1.858500E-7	3.598907E-3
1.859000E-7	3.694832E-3
1.859500E-7	3.794183E-3
1.860000E-7	3.956913E-3
1.860500E-7	4.116217E-3
1.861000E-7	4.268670E-3
1.861500E-7	4.400567E-3
1.862000E-7	4.505057E-3
1.862500E-7	4.597556E-3
1.863000E-7	4.618112E-3
1.863500E-7	4.638667E-3
1.864000E-7	4.607834E-3
1.864500E-7	4.513622E-3
1.865000E-7	4.445104E-3
1.865500E-7	4.356030E-3
1.866000E-7	4.261818E-3
1.866500E-7	4.183023E-3
1.867000E-7	4.049412E-3
1.867500E-7	3.950061E-3
1.868000E-7	3.860988E-3
1.868500E-7	3.801035E-3
1.869000E-7	3.768489E-3
1.869500E-7	3.763350E-3
1.870000E-7	3.749646E-3
1.870500E-7	3.735943E-3
1.871000E-7	3.739368E-3
1.871500E-7	3.742794E-3
1.872000E-7	3.742794E-3
1.872500E-7	3.729091E-3
1.873000E-7	3.706822E-3
1.873500E-7	3.636591E-3
1.874000E-7	3.574925E-3
1.874500E-7	3.526963E-3
1.875000E-7	3.460158E-3
1.875500E-7	3.427612E-3
1.876000E-7	3.386501E-3
1.876500E-7	3.381362E-3
1.877000E-7	3.401917E-3
1.877500E-7	3.437889E-3
1.878000E-7	3.475574E-3
1.878500E-7	3.549231E-3
1.879000E-7	3.626314E-3
1.879500E-7	3.734230E-3
1.880000E-7	3.811312E-3
1.880500E-7	3.879830E-3
1.881000E-7	3.902099E-3
1.881500E-7	3.866127E-3
1.882000E-7	3.814738E-3
1.882500E-7	3.710248E-3
1.883000E-7	3.652008E-3
1.883500E-7	3.574925E-3
1.884000E-7	3.530389E-3
1.884500E-7	3.508120E-3
1.885000E-7	3.504694E-3
1.885500E-7	3.549231E-3
1.886000E-7	3.624601E-3
1.886500E-7	3.689693E-3
1.887000E-7	3.766776E-3
1.887500E-7	3.848997E-3
1.888000E-7	3.934645E-3
1.888500E-7	4.003163E-3
1.889000E-7	4.071681E-3
1.889500E-7	4.123069E-3
1.890000E-7	4.128208E-3
1.890500E-7	4.140199E-3
1.891000E-7	4.145338E-3
1.891500E-7	4.124782E-3
1.892000E-7	4.104227E-3
1.892500E-7	4.087097E-3
1.893000E-7	4.016866E-3
1.893500E-7	3.968904E-3
1.894000E-7	3.932932E-3
1.894500E-7	3.864414E-3
1.895000E-7	3.838720E-3
1.895500E-7	3.802748E-3
1.896000E-7	3.787331E-3
1.896500E-7	3.706822E-3
1.897000E-7	3.660573E-3
1.897500E-7	3.576638E-3
1.898000E-7	3.482426E-3
1.898500E-7	3.410482E-3
1.899000E-7	3.367658E-3
1.899500E-7	3.345390E-3
1.900000E-7	3.383075E-3
1.900500E-7	3.429325E-3
1.901000E-7	3.511546E-3
1.901500E-7	3.602332E-3
1.902000E-7	3.689693E-3
1.902500E-7	3.741081E-3
1.903000E-7	3.819877E-3
1.903500E-7	3.888395E-3
1.904000E-7	3.908951E-3
1.904500E-7	3.938071E-3
1.905000E-7	3.929506E-3
1.905500E-7	3.869553E-3
1.906000E-7	3.818164E-3
1.906500E-7	3.766776E-3
1.907000E-7	3.739368E-3
1.907500E-7	3.687980E-3
1.908000E-7	3.640017E-3
1.908500E-7	3.609184E-3
1.909000E-7	3.610897E-3
1.909500E-7	3.629740E-3
1.910000E-7	3.660573E-3
1.910500E-7	3.715387E-3
1.911000E-7	3.737656E-3
1.911500E-7	3.686267E-3
1.912000E-7	3.665712E-3
1.912500E-7	3.604045E-3
1.913000E-7	3.532102E-3
1.913500E-7	3.461871E-3
1.914000E-7	3.395066E-3
1.914500E-7	3.374510E-3
1.915000E-7	3.372797E-3
1.915500E-7	3.398491E-3
1.916000E-7	3.501268E-3
1.916500E-7	3.605758E-3
1.917000E-7	3.687980E-3
1.917500E-7	3.770202E-3
1.918000E-7	3.857562E-3
1.918500E-7	3.910663E-3
1.919000E-7	3.970617E-3
1.919500E-7	3.951774E-3
1.920000E-7	3.919228E-3
1.920500E-7	3.883256E-3
1.921000E-7	3.862701E-3
1.921500E-7	3.818164E-3
1.922000E-7	3.744507E-3
1.922500E-7	3.663999E-3
1.923000E-7	3.564648E-3
1.923500E-7	3.470435E-3
1.924000E-7	3.348816E-3
1.924500E-7	3.213493E-3
1.925000E-7	3.117568E-3
1.925500E-7	3.004513E-3
1.926000E-7	2.917152E-3
1.926500E-7	2.889745E-3
1.927000E-7	2.934282E-3
1.927500E-7	3.002800E-3
1.928000E-7	3.126132E-3
1.928500E-7	3.304279E-3
1.929000E-7	3.460158E-3
1.929500E-7	3.636591E-3
1.930000E-7	3.809599E-3
1.930500E-7	4.006589E-3
1.931000E-7	4.174458E-3
1.931500E-7	4.287512E-3
1.932000E-7	4.350892E-3
1.932500E-7	4.380012E-3
1.933000E-7	4.378299E-3
1.933500E-7	4.326910E-3
1.934000E-7	4.265244E-3
1.934500E-7	4.174458E-3
1.935000E-7	4.087097E-3
1.935500E-7	4.013440E-3
1.936000E-7	3.926080E-3
1.936500E-7	3.807886E-3
1.937000E-7	3.746220E-3
1.937500E-7	3.657147E-3
1.938000E-7	3.583490E-3
1.938500E-7	3.508120E-3
1.939000E-7	3.453306E-3
1.939500E-7	3.369371E-3
1.940000E-7	3.328260E-3
1.940500E-7	3.317983E-3
1.941000E-7	3.302566E-3
1.941500E-7	3.305992E-3
1.942000E-7	3.333399E-3
1.942500E-7	3.395066E-3
1.943000E-7	3.460158E-3
1.943500E-7	3.552657E-3
1.944000E-7	3.663999E-3
1.944500E-7	3.795896E-3
1.945000E-7	3.903812E-3
1.945500E-7	4.040848E-3
1.946000E-7	4.171032E-3
1.946500E-7	4.270383E-3
1.947000E-7	4.340614E-3
1.947500E-7	4.407419E-3
1.948000E-7	4.431400E-3
1.948500E-7	4.403993E-3
1.949000E-7	4.364595E-3
1.949500E-7	4.284087E-3
1.950000E-7	4.162467E-3
1.950500E-7	4.056264E-3
1.951000E-7	3.967191E-3
1.951500E-7	3.876404E-3
1.952000E-7	3.789044E-3
1.952500E-7	3.751359E-3
1.953000E-7	3.744507E-3
1.953500E-7	3.746220E-3
1.954000E-7	3.789044E-3
1.954500E-7	3.872979E-3
1.955000E-7	3.931219E-3
1.955500E-7	3.980894E-3
1.956000E-7	4.045987E-3
1.956500E-7	4.064829E-3
1.957000E-7	4.083671E-3
1.957500E-7	4.088810E-3
1.958000E-7	4.054551E-3
1.958500E-7	4.018579E-3
1.959000E-7	3.924367E-3
1.959500E-7	3.802748E-3
1.960000E-7	3.689693E-3
1.960500E-7	3.600620E-3
1.961000E-7	3.477287E-3
1.961500E-7	3.367658E-3
1.962000E-7	3.282011E-3
1.962500E-7	3.203215E-3
1.963000E-7	3.127845E-3
1.963500E-7	3.109003E-3
1.964000E-7	3.069605E-3
1.964500E-7	3.090160E-3
1.965000E-7	3.090160E-3
1.965500E-7	3.076457E-3
1.966000E-7	3.037059E-3
1.966500E-7	3.018217E-3
1.967000E-7	3.011365E-3
1.967500E-7	2.995948E-3
1.968000E-7	2.982245E-3
1.968500E-7	2.971967E-3
1.969000E-7	2.959976E-3
1.969500E-7	2.935995E-3
1.970000E-7	2.946273E-3
1.970500E-7	2.983958E-3
1.971000E-7	3.050763E-3
1.971500E-7	3.129558E-3
1.972000E-7	3.228909E-3
1.972500E-7	3.336825E-3
1.973000E-7	3.441315E-3
1.973500E-7	3.513259E-3
1.974000E-7	3.535527E-3
1.974500E-7	3.559509E-3
1.975000E-7	3.513259E-3
1.975500E-7	3.504694E-3
1.976000E-7	3.432750E-3
1.976500E-7	3.357381E-3
1.977000E-7	3.309418E-3
1.977500E-7	3.232335E-3
1.978000E-7	3.160391E-3
1.978500E-7	3.088447E-3
1.979000E-7	3.028494E-3
1.979500E-7	3.014791E-3
1.980000E-7	3.064466E-3
1.980500E-7	3.141549E-3
1.981000E-7	3.258030E-3
1.981500E-7	3.437889E-3
1.982000E-7	3.617749E-3
1.982500E-7	3.819877E-3
1.983000E-7	3.996311E-3
1.983500E-7	4.141912E-3
1.984000E-7	4.258392E-3
1.984500E-7	4.313207E-3
1.985000E-7	4.325197E-3
1.985500E-7	4.304642E-3
1.986000E-7	4.242976E-3
1.986500E-7	4.131634E-3
1.987000E-7	3.991172E-3
1.987500E-7	3.816451E-3
1.988000E-7	3.652008E-3
1.988500E-7	3.521824E-3
1.989000E-7	3.453306E-3
1.989500E-7	3.407056E-3
1.990000E-7	3.412195E-3
1.990500E-7	3.436176E-3
1.991000E-7	3.504694E-3
1.991500E-7	3.605758E-3
1.992000E-7	3.636591E-3
1.992500E-7	3.660573E-3
1.993000E-7	3.706822E-3
1.993500E-7	3.729091E-3
1.994000E-7	3.694832E-3
1.994500E-7	3.670850E-3
1.995000E-7	3.640017E-3
1.995500E-7	3.564648E-3
1.996000E-7	3.479000E-3
1.996500E-7	3.408769E-3
1.997000E-7	3.331686E-3
1.997500E-7	3.299140E-3
1.998000E-7	3.266594E-3
1.998500E-7	3.252891E-3
1.999000E-7	3.294001E-3
1.999500E-7	3.355668E-3
2.000000E-7	3.427612E-3
2.000500E-7	3.492704E-3
