Study Name	VanadiumIrradiated_V3plus
Sample Name	2022-01-04
Run Name	unirradiated_14
Operator	Angus
Date	1/4/2022
Time	13:58
Sign	FIX
Grating Spacing	06.40um
Channel	3
Number Traces	10000
Files in Batch	1
Batch Number	1
dt	50.000001E-12
time stamp (ms)	13:58:54
	
Time	Amplitude
0.000000E+0	-5.704139E-4
5.000000E-11	-7.057369E-4
1.000000E-10	-7.725420E-4
1.500000E-10	-8.342082E-4
2.000000E-10	-8.873096E-4
2.500000E-10	-9.181427E-4
3.000000E-10	-8.410600E-4
3.500000E-10	-7.108758E-4
4.000000E-10	-5.892563E-4
4.500000E-10	-4.933311E-4
5.000000E-10	-3.477303E-4
5.500000E-10	-2.226850E-4
6.000000E-10	-1.370375E-4
6.500000E-10	-4.453819E-5
7.000000E-10	1.711466E-6
7.500000E-10	2.740572E-5
8.000000E-10	-3.083458E-5
8.500000E-10	-1.267598E-4
9.000000E-10	-2.312497E-4
9.500000E-10	-3.734246E-4
1.000000E-9	-5.207383E-4
1.050000E-9	-6.663391E-4
1.100000E-9	-7.930974E-4
1.150000E-9	-9.198557E-4
1.200000E-9	-1.000364E-3
1.250000E-9	-1.051753E-3
1.300000E-9	-9.780960E-4
1.350000E-9	-8.753190E-4
1.400000E-9	-7.759679E-4
1.450000E-9	-6.320801E-4
1.500000E-9	-5.053217E-4
1.550000E-9	-4.231001E-4
1.600000E-9	-3.357397E-4
1.650000E-9	-2.449533E-4
1.700000E-9	-2.261109E-4
1.750000E-9	-2.158332E-4
1.800000E-9	-2.518051E-4
1.850000E-9	-3.014807E-4
1.900000E-9	-3.751375E-4
1.950000E-9	-4.453685E-4
2.000000E-9	-5.036088E-4
2.050000E-9	-5.395808E-4
2.100000E-9	-5.721268E-4
2.150000E-9	-5.995340E-4
2.200000E-9	-5.669880E-4
2.250000E-9	-5.567103E-4
2.300000E-9	-5.104606E-4
2.350000E-9	-4.916181E-4
2.400000E-9	-4.539332E-4
2.450000E-9	-4.179613E-4
2.500000E-9	-3.905541E-4
2.550000E-9	-3.819893E-4
2.600000E-9	-4.076836E-4
2.650000E-9	-4.128224E-4
2.700000E-9	-4.231001E-4
2.750000E-9	-4.231001E-4
2.800000E-9	-4.642109E-4
2.850000E-9	-5.224512E-4
2.900000E-9	-5.430067E-4
2.950000E-9	-6.303671E-4
3.000000E-9	-6.886074E-4
3.050000E-9	-7.399959E-4
3.100000E-9	-7.365700E-4
3.150000E-9	-7.571254E-4
3.200000E-9	-7.588384E-4
3.250000E-9	-7.228664E-4
3.300000E-9	-6.714779E-4
3.350000E-9	-6.012470E-4
3.400000E-9	-5.138865E-4
3.450000E-9	-4.111095E-4
3.500000E-9	-3.288879E-4
3.550000E-9	-2.792123E-4
3.600000E-9	-2.278238E-4
3.650000E-9	-1.969907E-4
3.700000E-9	-2.021296E-4
3.750000E-9	-2.381015E-4
3.800000E-9	-3.117584E-4
3.850000E-9	-4.093965E-4
3.900000E-9	-5.018958E-4
3.950000E-9	-5.995340E-4
4.000000E-9	-6.783297E-4
4.050000E-9	-7.262923E-4
4.100000E-9	-7.519866E-4
4.150000E-9	-7.297182E-4
4.200000E-9	-7.451348E-4
4.250000E-9	-7.417089E-4
4.300000E-9	-7.177276E-4
4.350000E-9	-7.005981E-4
4.400000E-9	-7.005981E-4
4.450000E-9	-7.382830E-4
4.500000E-9	-7.571254E-4
4.550000E-9	-8.050880E-4
4.600000E-9	-8.342082E-4
4.650000E-9	-8.564765E-4
4.700000E-9	-8.736060E-4
4.750000E-9	-9.061521E-4
4.800000E-9	-9.421240E-4
4.850000E-9	-9.763830E-4
4.900000E-9	-1.000364E-3
4.950000E-9	-9.661053E-4
5.000000E-9	-9.147168E-4
5.050000E-9	-8.787449E-4
5.100000E-9	-7.982362E-4
5.150000E-9	-7.280053E-4
5.200000E-9	-6.714779E-4
5.250000E-9	-5.875434E-4
5.300000E-9	-5.018958E-4
5.350000E-9	-4.385167E-4
5.400000E-9	-3.682857E-4
5.450000E-9	-3.014807E-4
5.500000E-9	-2.449533E-4
5.550000E-9	-1.987037E-4
5.600000E-9	-1.627317E-4
5.650000E-9	-1.850001E-4
5.700000E-9	-2.055555E-4
5.750000E-9	-2.209720E-4
5.800000E-9	-2.312497E-4
5.850000E-9	-2.980548E-4
5.900000E-9	-3.922670E-4
5.950000E-9	-4.727757E-4
6.000000E-9	-5.224512E-4
6.050000E-9	-5.532844E-4
6.100000E-9	-5.669880E-4
6.150000E-9	-5.909693E-4
6.200000E-9	-5.704139E-4
6.250000E-9	-5.087476E-4
6.300000E-9	-4.762016E-4
6.350000E-9	-4.402296E-4
6.400000E-9	-3.785634E-4
6.450000E-9	-2.312497E-4
6.500000E-9	-5.481589E-5
6.550000E-9	2.655058E-4
6.600000E-9	6.954562E-4
6.650000E-9	1.315544E-3
6.700000E-9	2.177158E-3
6.750000E-9	3.297427E-3
6.800000E-9	4.676352E-3
6.850000E-9	6.416709E-3
6.900000E-9	8.511647E-3
6.950000E-9	1.093205E-2
7.000000E-9	1.357341E-2
7.050000E-9	1.641520E-2
7.100000E-9	1.931180E-2
7.150000E-9	2.215016E-2
7.200000E-9	2.482064E-2
7.250000E-9	2.725475E-2
7.300000E-9	2.940793E-2
7.350000E-9	3.119453E-2
7.400000E-9	3.260429E-2
7.450000E-9	3.367488E-2
7.500000E-9	3.449539E-2
7.550000E-9	3.513432E-2
7.600000E-9	3.562593E-2
7.650000E-9	3.610213E-2
7.700000E-9	3.665028E-2
7.750000E-9	3.738856E-2
7.800000E-9	3.834439E-2
7.850000E-9	3.952461E-2
7.900000E-9	4.090525E-2
7.950000E-9	4.239209E-2
8.000000E-9	4.394916E-2
8.050000E-9	4.544114E-2
8.100000E-9	4.680807E-2
8.150000E-9	4.795575E-2
8.200000E-9	4.883963E-2
8.250000E-9	4.939120E-2
8.300000E-9	4.957962E-2
8.350000E-9	4.946657E-2
8.400000E-9	4.900236E-2
8.450000E-9	4.819727E-2
8.500000E-9	4.709413E-2
8.550000E-9	4.575975E-2
8.600000E-9	4.420096E-2
8.650000E-9	4.247945E-2
8.700000E-9	4.073224E-2
8.750000E-9	3.889938E-2
8.800000E-9	3.709564E-2
8.850000E-9	3.530390E-2
8.900000E-9	3.360808E-2
8.950000E-9	3.199277E-2
9.000000E-9	3.050764E-2
9.050000E-9	2.921436E-2
9.100000E-9	2.809067E-2
9.150000E-9	2.719137E-2
9.200000E-9	2.650105E-2
9.250000E-9	2.603341E-2
9.300000E-9	2.574735E-2
9.350000E-9	2.561888E-2
9.400000E-9	2.561545E-2
9.450000E-9	2.571480E-2
9.500000E-9	2.587240E-2
9.550000E-9	2.603170E-2
9.600000E-9	2.621499E-2
9.650000E-9	2.642397E-2
9.700000E-9	2.663295E-2
9.750000E-9	2.686591E-2
9.800000E-9	2.715197E-2
9.850000E-9	2.744831E-2
9.900000E-9	2.790224E-2
9.950000E-9	2.839215E-2
1.000000E-8	2.901052E-2
1.005000E-8	2.976593E-2
1.010000E-8	3.064810E-2
1.015000E-8	3.162106E-2
1.020000E-8	3.276873E-2
1.025000E-8	3.405858E-2
1.030000E-8	3.539640E-2
1.035000E-8	3.672907E-2
1.040000E-8	3.808402E-2
1.045000E-8	3.935845E-2
1.050000E-8	4.048215E-2
1.055000E-8	4.148251E-2
1.060000E-8	4.230644E-2
1.065000E-8	4.293852E-2
1.070000E-8	4.335648E-2
1.075000E-8	4.348837E-2
1.080000E-8	4.344212E-2
1.085000E-8	4.324000E-2
1.090000E-8	4.281861E-2
1.095000E-8	4.220366E-2
1.100000E-8	4.146709E-2
1.105000E-8	4.061233E-2
1.110000E-8	3.964794E-2
1.115000E-8	3.868869E-2
1.120000E-8	3.767976E-2
1.125000E-8	3.661602E-2
1.130000E-8	3.555399E-2
1.135000E-8	3.448853E-2
1.140000E-8	3.338540E-2
1.145000E-8	3.226855E-2
1.150000E-8	3.115000E-2
1.155000E-8	3.008797E-2
1.160000E-8	2.904649E-2
1.165000E-8	2.807011E-2
1.170000E-8	2.713655E-2
1.175000E-8	2.628522E-2
1.180000E-8	2.545786E-2
1.185000E-8	2.473157E-2
1.190000E-8	2.409093E-2
1.195000E-8	2.353765E-2
1.200000E-8	2.318649E-2
1.205000E-8	2.299635E-2
1.210000E-8	2.292098E-2
1.215000E-8	2.298779E-2
1.220000E-8	2.321047E-2
1.225000E-8	2.354964E-2
1.230000E-8	2.405496E-2
1.235000E-8	2.467676E-2
1.240000E-8	2.540133E-2
1.245000E-8	2.620300E-2
1.250000E-8	2.710401E-2
1.255000E-8	2.807182E-2
1.260000E-8	2.905506E-2
1.265000E-8	3.012736E-2
1.270000E-8	3.123907E-2
1.275000E-8	3.234906E-2
1.280000E-8	3.342993E-2
1.285000E-8	3.447826E-2
1.290000E-8	3.548890E-2
1.295000E-8	3.640533E-2
1.300000E-8	3.725666E-2
1.305000E-8	3.797953E-2
1.310000E-8	3.860304E-2
1.315000E-8	3.911693E-2
1.320000E-8	3.948692E-2
1.325000E-8	3.971132E-2
1.330000E-8	3.982951E-2
1.335000E-8	3.984322E-2
1.340000E-8	3.971817E-2
1.345000E-8	3.948350E-2
1.350000E-8	3.913577E-2
1.355000E-8	3.868355E-2
1.360000E-8	3.812855E-2
1.365000E-8	3.743995E-2
1.370000E-8	3.665370E-2
1.375000E-8	3.574241E-2
1.380000E-8	3.479173E-2
1.385000E-8	3.382391E-2
1.390000E-8	3.281327E-2
1.395000E-8	3.175981E-2
1.400000E-8	3.064296E-2
1.405000E-8	2.947816E-2
1.410000E-8	2.837330E-2
1.415000E-8	2.727016E-2
1.420000E-8	2.626809E-2
1.425000E-8	2.534138E-2
1.430000E-8	2.449861E-2
1.435000E-8	2.373463E-2
1.440000E-8	2.310598E-2
1.445000E-8	2.260237E-2
1.450000E-8	2.223238E-2
1.455000E-8	2.195145E-2
1.460000E-8	2.182983E-2
1.465000E-8	2.183155E-2
1.470000E-8	2.196344E-2
1.475000E-8	2.225978E-2
1.480000E-8	2.266061E-2
1.485000E-8	2.315052E-2
1.490000E-8	2.375005E-2
1.495000E-8	2.441125E-2
1.500000E-8	2.516666E-2
1.505000E-8	2.603170E-2
1.510000E-8	2.696868E-2
1.515000E-8	2.796220E-2
1.520000E-8	2.898825E-2
1.525000E-8	3.005542E-2
1.530000E-8	3.109518E-2
1.535000E-8	3.209383E-2
1.540000E-8	3.305137E-2
1.545000E-8	3.387872E-2
1.550000E-8	3.461187E-2
1.555000E-8	3.530732E-2
1.560000E-8	3.596338E-2
1.565000E-8	3.653894E-2
1.570000E-8	3.700486E-2
1.575000E-8	3.741939E-2
1.580000E-8	3.771745E-2
1.585000E-8	3.790587E-2
1.590000E-8	3.796754E-2
1.595000E-8	3.784934E-2
1.600000E-8	3.757013E-2
1.605000E-8	3.724125E-2
1.610000E-8	3.677532E-2
1.615000E-8	3.615866E-2
1.620000E-8	3.544607E-2
1.625000E-8	3.462557E-2
1.630000E-8	3.374683E-2
1.635000E-8	3.276017E-2
1.640000E-8	3.171013E-2
1.645000E-8	3.067037E-2
1.650000E-8	2.961690E-2
1.655000E-8	2.855659E-2
1.660000E-8	2.746373E-2
1.665000E-8	2.640512E-2
1.670000E-8	2.539620E-2
1.675000E-8	2.443694E-2
1.680000E-8	2.349311E-2
1.685000E-8	2.268460E-2
1.690000E-8	2.195145E-2
1.695000E-8	2.130053E-2
1.700000E-8	2.078836E-2
1.705000E-8	2.039609E-2
1.710000E-8	2.014772E-2
1.715000E-8	1.998156E-2
1.720000E-8	2.000040E-2
1.725000E-8	2.014258E-2
1.730000E-8	2.042350E-2
1.735000E-8	2.088257E-2
1.740000E-8	2.146669E-2
1.745000E-8	2.216215E-2
1.750000E-8	2.293469E-2
1.755000E-8	2.381172E-2
1.760000E-8	2.472472E-2
1.765000E-8	2.567541E-2
1.770000E-8	2.665693E-2
1.775000E-8	2.767442E-2
1.780000E-8	2.868849E-2
1.785000E-8	2.973510E-2
1.790000E-8	3.074574E-2
1.795000E-8	3.171698E-2
1.800000E-8	3.265568E-2
1.805000E-8	3.352414E-2
1.810000E-8	3.430011E-2
1.815000E-8	3.499214E-2
1.820000E-8	3.554885E-2
1.825000E-8	3.599079E-2
1.830000E-8	3.637278E-2
1.835000E-8	3.659546E-2
1.840000E-8	3.666569E-2
1.845000E-8	3.660745E-2
1.850000E-8	3.646528E-2
1.855000E-8	3.615181E-2
1.860000E-8	3.568075E-2
1.865000E-8	3.510348E-2
1.870000E-8	3.439946E-2
1.875000E-8	3.357382E-2
1.880000E-8	3.265910E-2
1.885000E-8	3.168786E-2
1.890000E-8	3.068065E-2
1.895000E-8	2.963575E-2
1.900000E-8	2.852062E-2
1.905000E-8	2.740891E-2
1.910000E-8	2.639827E-2
1.915000E-8	2.535851E-2
1.920000E-8	2.433759E-2
1.925000E-8	2.337320E-2
1.930000E-8	2.245163E-2
1.935000E-8	2.162599E-2
1.940000E-8	2.091512E-2
1.945000E-8	2.031559E-2
1.950000E-8	1.984281E-2
1.955000E-8	1.948652E-2
1.960000E-8	1.927925E-2
1.965000E-8	1.923300E-2
1.970000E-8	1.933407E-2
1.975000E-8	1.952420E-2
1.980000E-8	1.987365E-2
1.985000E-8	2.031730E-2
1.990000E-8	2.081234E-2
1.995000E-8	2.138618E-2
2.000000E-8	2.201826E-2
2.005000E-8	2.268973E-2
2.010000E-8	2.338862E-2
2.015000E-8	2.415602E-2
2.020000E-8	2.495083E-2
2.025000E-8	2.579531E-2
2.030000E-8	2.672887E-2
2.035000E-8	2.769155E-2
2.040000E-8	2.866108E-2
2.045000E-8	2.964945E-2
2.050000E-8	3.062412E-2
2.055000E-8	3.157309E-2
2.060000E-8	3.247239E-2
2.065000E-8	3.323979E-2
2.070000E-8	3.388900E-2
2.075000E-8	3.440460E-2
2.080000E-8	3.474205E-2
2.085000E-8	3.491335E-2
2.090000E-8	3.494418E-2
2.095000E-8	3.482427E-2
2.100000E-8	3.461872E-2
2.105000E-8	3.430868E-2
2.110000E-8	3.389585E-2
2.115000E-8	3.333058E-2
2.120000E-8	3.265054E-2
2.125000E-8	3.187457E-2
2.130000E-8	3.100268E-2
2.135000E-8	3.007598E-2
2.140000E-8	2.905848E-2
2.145000E-8	2.803928E-2
2.150000E-8	2.700123E-2
2.155000E-8	2.592550E-2
2.160000E-8	2.484634E-2
2.165000E-8	2.381857E-2
2.170000E-8	2.284561E-2
2.175000E-8	2.189150E-2
2.180000E-8	2.105387E-2
2.185000E-8	2.032244E-2
2.190000E-8	1.966809E-2
2.195000E-8	1.906171E-2
2.200000E-8	1.855981E-2
2.205000E-8	1.819153E-2
2.210000E-8	1.791746E-2
2.215000E-8	1.770848E-2
2.220000E-8	1.760570E-2
2.225000E-8	1.759028E-2
2.230000E-8	1.767422E-2
2.235000E-8	1.788320E-2
2.240000E-8	1.818296E-2
2.245000E-8	1.862148E-2
2.250000E-8	1.924328E-2
2.255000E-8	1.997985E-2
2.260000E-8	2.084831E-2
2.265000E-8	2.182641E-2
2.270000E-8	2.293983E-2
2.275000E-8	2.410977E-2
2.280000E-8	2.529684E-2
2.285000E-8	2.646508E-2
2.290000E-8	2.765044E-2
2.295000E-8	2.880325E-2
2.300000E-8	2.983616E-2
2.305000E-8	3.070805E-2
2.310000E-8	3.143263E-2
2.315000E-8	3.203216E-2
2.320000E-8	3.252207E-2
2.325000E-8	3.287665E-2
2.330000E-8	3.313359E-2
2.335000E-8	3.325350E-2
2.340000E-8	3.332373E-2
2.345000E-8	3.332202E-2
2.350000E-8	3.323637E-2
2.355000E-8	3.303595E-2
2.360000E-8	3.273105E-2
2.365000E-8	3.238675E-2
2.370000E-8	3.190027E-2
2.375000E-8	3.128189E-2
2.380000E-8	3.055731E-2
2.385000E-8	2.971968E-2
2.390000E-8	2.873816E-2
2.395000E-8	2.768298E-2
2.400000E-8	2.654559E-2
2.405000E-8	2.539448E-2
2.410000E-8	2.422454E-2
2.415000E-8	2.311626E-2
2.420000E-8	2.203539E-2
2.425000E-8	2.098192E-2
2.430000E-8	2.005522E-2
2.435000E-8	1.922615E-2
2.440000E-8	1.849129E-2
2.445000E-8	1.783010E-2
2.450000E-8	1.729052E-2
2.455000E-8	1.684172E-2
2.460000E-8	1.647001E-2
2.465000E-8	1.624904E-2
2.470000E-8	1.617539E-2
2.475000E-8	1.622335E-2
2.480000E-8	1.638608E-2
2.485000E-8	1.671325E-2
2.490000E-8	1.719630E-2
2.495000E-8	1.779241E-2
2.500000E-8	1.848958E-2
2.505000E-8	1.929467E-2
2.510000E-8	2.021452E-2
2.515000E-8	2.117891E-2
2.520000E-8	2.218613E-2
2.525000E-8	2.319163E-2
2.530000E-8	2.423310E-2
2.535000E-8	2.527115E-2
2.540000E-8	2.626980E-2
2.545000E-8	2.727530E-2
2.550000E-8	2.825511E-2
2.555000E-8	2.913214E-2
2.560000E-8	2.995949E-2
2.565000E-8	3.066866E-2
2.570000E-8	3.126990E-2
2.575000E-8	3.177351E-2
2.580000E-8	3.212809E-2
2.585000E-8	3.235420E-2
2.590000E-8	3.246040E-2
2.595000E-8	3.238503E-2
2.600000E-8	3.215892E-2
2.605000E-8	3.179235E-2
2.610000E-8	3.131786E-2
2.615000E-8	3.070120E-2
2.620000E-8	3.003658E-2
2.625000E-8	2.927945E-2
2.630000E-8	2.847951E-2
2.635000E-8	2.759049E-2
2.640000E-8	2.666549E-2
2.645000E-8	2.575592E-2
2.650000E-8	2.481893E-2
2.655000E-8	2.383227E-2
2.660000E-8	2.284390E-2
2.665000E-8	2.194460E-2
2.670000E-8	2.107442E-2
2.675000E-8	2.024364E-2
2.680000E-8	1.944541E-2
2.685000E-8	1.872083E-2
2.690000E-8	1.806306E-2
2.695000E-8	1.743783E-2
2.700000E-8	1.691538E-2
2.705000E-8	1.647515E-2
2.710000E-8	1.610173E-2
2.715000E-8	1.582252E-2
2.720000E-8	1.565636E-2
2.725000E-8	1.554845E-2
2.730000E-8	1.558956E-2
2.735000E-8	1.578483E-2
2.740000E-8	1.611372E-2
2.745000E-8	1.661733E-2
2.750000E-8	1.722714E-2
2.755000E-8	1.798597E-2
2.760000E-8	1.889898E-2
2.765000E-8	1.985652E-2
2.770000E-8	2.085517E-2
2.775000E-8	2.191891E-2
2.780000E-8	2.299464E-2
2.785000E-8	2.402070E-2
2.790000E-8	2.506217E-2
2.795000E-8	2.601286E-2
2.800000E-8	2.687790E-2
2.805000E-8	2.767956E-2
2.810000E-8	2.842127E-2
2.815000E-8	2.907219E-2
2.820000E-8	2.961519E-2
2.825000E-8	3.008968E-2
2.830000E-8	3.044426E-2
2.835000E-8	3.068579E-2
2.840000E-8	3.083481E-2
2.845000E-8	3.086565E-2
2.850000E-8	3.073546E-2
2.855000E-8	3.048023E-2
2.860000E-8	3.010167E-2
2.865000E-8	2.959121E-2
2.870000E-8	2.900709E-2
2.875000E-8	2.833904E-2
2.880000E-8	2.762817E-2
2.885000E-8	2.681623E-2
2.890000E-8	2.593920E-2
2.895000E-8	2.506560E-2
2.900000E-8	2.414403E-2
2.905000E-8	2.320705E-2
2.910000E-8	2.228890E-2
2.915000E-8	2.136562E-2
2.920000E-8	2.046633E-2
2.925000E-8	1.957730E-2
2.930000E-8	1.870713E-2
2.935000E-8	1.785579E-2
2.940000E-8	1.705413E-2
2.945000E-8	1.634668E-2
2.950000E-8	1.567007E-2
2.955000E-8	1.509280E-2
2.960000E-8	1.465943E-2
2.965000E-8	1.440248E-2
2.970000E-8	1.429114E-2
2.975000E-8	1.434424E-2
2.980000E-8	1.456007E-2
2.985000E-8	1.494377E-2
2.990000E-8	1.548335E-2
2.995000E-8	1.615140E-2
3.000000E-8	1.694621E-2
3.005000E-8	1.780954E-2
3.010000E-8	1.874995E-2
3.015000E-8	1.973318E-2
3.020000E-8	2.074896E-2
3.025000E-8	2.172706E-2
3.030000E-8	2.270686E-2
3.035000E-8	2.362329E-2
3.040000E-8	2.448662E-2
3.045000E-8	2.528485E-2
3.050000E-8	2.604883E-2
3.055000E-8	2.675114E-2
3.060000E-8	2.742090E-2
3.065000E-8	2.800159E-2
3.070000E-8	2.851719E-2
3.075000E-8	2.891631E-2
3.080000E-8	2.926918E-2
3.085000E-8	2.956723E-2
3.090000E-8	2.981218E-2
3.095000E-8	2.994237E-2
3.100000E-8	2.996463E-2
3.105000E-8	2.987385E-2
3.110000E-8	2.966315E-2
3.115000E-8	2.931029E-2
3.120000E-8	2.883923E-2
3.125000E-8	2.824997E-2
3.130000E-8	2.751683E-2
3.135000E-8	2.668947E-2
3.140000E-8	2.578846E-2
3.145000E-8	2.477611E-2
3.150000E-8	2.374491E-2
3.155000E-8	2.268631E-2
3.160000E-8	2.162428E-2
3.165000E-8	2.060165E-2
3.170000E-8	1.961670E-2
3.175000E-8	1.870027E-2
3.180000E-8	1.783010E-2
3.185000E-8	1.711751E-2
3.190000E-8	1.643062E-2
3.195000E-8	1.581567E-2
3.200000E-8	1.530007E-2
3.205000E-8	1.487012E-2
3.210000E-8	1.455665E-2
3.215000E-8	1.434253E-2
3.220000E-8	1.421577E-2
3.225000E-8	1.420378E-2
3.230000E-8	1.430142E-2
3.235000E-8	1.448984E-2
3.240000E-8	1.483243E-2
3.245000E-8	1.525553E-2
3.250000E-8	1.578483E-2
3.255000E-8	1.637751E-2
3.260000E-8	1.703700E-2
3.265000E-8	1.772389E-2
3.270000E-8	1.851185E-2
3.275000E-8	1.929638E-2
3.280000E-8	2.012374E-2
3.285000E-8	2.094595E-2
3.290000E-8	2.178187E-2
3.295000E-8	2.260580E-2
3.300000E-8	2.338862E-2
3.305000E-8	2.416630E-2
3.310000E-8	2.488574E-2
3.315000E-8	2.556235E-2
3.320000E-8	2.613276E-2
3.325000E-8	2.666035E-2
3.330000E-8	2.711771E-2
3.335000E-8	2.747400E-2
3.340000E-8	2.773437E-2
3.345000E-8	2.783372E-2
3.350000E-8	2.775664E-2
3.355000E-8	2.752539E-2
3.360000E-8	2.718280E-2
3.365000E-8	2.670318E-2
3.370000E-8	2.611392E-2
3.375000E-8	2.545444E-2
3.380000E-8	2.469903E-2
3.385000E-8	2.391278E-2
3.390000E-8	2.309570E-2
3.395000E-8	2.228034E-2
3.400000E-8	2.148211E-2
3.405000E-8	2.069929E-2
3.410000E-8	1.991476E-2
3.415000E-8	1.917134E-2
3.420000E-8	1.844333E-2
3.425000E-8	1.779584E-2
3.430000E-8	1.715519E-2
3.435000E-8	1.654367E-2
3.440000E-8	1.597497E-2
3.445000E-8	1.541826E-2
3.450000E-8	1.497289E-2
3.455000E-8	1.460290E-2
3.460000E-8	1.431512E-2
3.465000E-8	1.410614E-2
3.470000E-8	1.400850E-2
3.475000E-8	1.401022E-2
3.480000E-8	1.412670E-2
3.485000E-8	1.437679E-2
3.490000E-8	1.473993E-2
3.495000E-8	1.521271E-2
3.500000E-8	1.581567E-2
3.505000E-8	1.649571E-2
3.510000E-8	1.724084E-2
3.515000E-8	1.799625E-2
3.520000E-8	1.879449E-2
3.525000E-8	1.960642E-2
3.530000E-8	2.042521E-2
3.535000E-8	2.126456E-2
3.540000E-8	2.209020E-2
3.545000E-8	2.285247E-2
3.550000E-8	2.362501E-2
3.555000E-8	2.435301E-2
3.560000E-8	2.502277E-2
3.565000E-8	2.561717E-2
3.570000E-8	2.614818E-2
3.575000E-8	2.661582E-2
3.580000E-8	2.697211E-2
3.585000E-8	2.716567E-2
3.590000E-8	2.728729E-2
3.595000E-8	2.730271E-2
3.600000E-8	2.720165E-2
3.605000E-8	2.704577E-2
3.610000E-8	2.679739E-2
3.615000E-8	2.644623E-2
3.620000E-8	2.603684E-2
3.625000E-8	2.555721E-2
3.630000E-8	2.501763E-2
3.635000E-8	2.440611E-2
3.640000E-8	2.373121E-2
3.645000E-8	2.302890E-2
3.650000E-8	2.231460E-2
3.655000E-8	2.155576E-2
3.660000E-8	2.074725E-2
3.665000E-8	1.993531E-2
3.670000E-8	1.914050E-2
3.675000E-8	1.827718E-2
3.680000E-8	1.747380E-2
3.685000E-8	1.673895E-2
3.690000E-8	1.599210E-2
3.695000E-8	1.531206E-2
3.700000E-8	1.469711E-2
3.705000E-8	1.418665E-2
3.710000E-8	1.378068E-2
3.715000E-8	1.344837E-2
3.720000E-8	1.325994E-2
3.725000E-8	1.320513E-2
3.730000E-8	1.330106E-2
3.735000E-8	1.345008E-2
3.740000E-8	1.374642E-2
3.745000E-8	1.413355E-2
3.750000E-8	1.466114E-2
3.755000E-8	1.524012E-2
3.760000E-8	1.588932E-2
3.765000E-8	1.659848E-2
3.770000E-8	1.733848E-2
3.775000E-8	1.810074E-2
3.780000E-8	1.887157E-2
3.785000E-8	1.970578E-2
3.790000E-8	2.050744E-2
3.795000E-8	2.124401E-2
3.800000E-8	2.196687E-2
3.805000E-8	2.264349E-2
3.810000E-8	2.328584E-2
3.815000E-8	2.388537E-2
3.820000E-8	2.440611E-2
3.825000E-8	2.481722E-2
3.830000E-8	2.520606E-2
3.835000E-8	2.549897E-2
3.840000E-8	2.574564E-2
3.845000E-8	2.589638E-2
3.850000E-8	2.595462E-2
3.855000E-8	2.590323E-2
3.860000E-8	2.576105E-2
3.865000E-8	2.553152E-2
3.870000E-8	2.518893E-2
3.875000E-8	2.475041E-2
3.880000E-8	2.425366E-2
3.885000E-8	2.369352E-2
3.890000E-8	2.304089E-2
3.895000E-8	2.232488E-2
3.900000E-8	2.158317E-2
3.905000E-8	2.084489E-2
3.910000E-8	2.013230E-2
3.915000E-8	1.944369E-2
3.920000E-8	1.872083E-2
3.925000E-8	1.800996E-2
3.930000E-8	1.734362E-2
3.935000E-8	1.668071E-2
3.940000E-8	1.600238E-2
3.945000E-8	1.541826E-2
3.950000E-8	1.489924E-2
3.955000E-8	1.439220E-2
3.960000E-8	1.396397E-2
3.965000E-8	1.365735E-2
3.970000E-8	1.341240E-2
3.975000E-8	1.324967E-2
3.980000E-8	1.322397E-2
3.985000E-8	1.330277E-2
3.990000E-8	1.354429E-2
3.995000E-8	1.392457E-2
4.000000E-8	1.440248E-2
4.005000E-8	1.498146E-2
4.010000E-8	1.564608E-2
4.015000E-8	1.634839E-2
4.020000E-8	1.705413E-2
4.025000E-8	1.779241E-2
4.030000E-8	1.852555E-2
4.035000E-8	1.922958E-2
4.040000E-8	1.988221E-2
4.045000E-8	2.055369E-2
4.050000E-8	2.121488E-2
4.055000E-8	2.183155E-2
4.060000E-8	2.243964E-2
4.065000E-8	2.304089E-2
4.070000E-8	2.358903E-2
4.075000E-8	2.406009E-2
4.080000E-8	2.445579E-2
4.085000E-8	2.473328E-2
4.090000E-8	2.489430E-2
4.095000E-8	2.493713E-2
4.100000E-8	2.489944E-2
4.105000E-8	2.470930E-2
4.110000E-8	2.444208E-2
4.115000E-8	2.409607E-2
4.120000E-8	2.370894E-2
4.125000E-8	2.326186E-2
4.130000E-8	2.278566E-2
4.135000E-8	2.233687E-2
4.140000E-8	2.176645E-2
4.145000E-8	2.118576E-2
4.150000E-8	2.059308E-2
4.155000E-8	1.998841E-2
4.160000E-8	1.932550E-2
4.165000E-8	1.865231E-2
4.170000E-8	1.796371E-2
4.175000E-8	1.725797E-2
4.180000E-8	1.654196E-2
4.185000E-8	1.588932E-2
4.190000E-8	1.523669E-2
4.195000E-8	1.465943E-2
4.200000E-8	1.418494E-2
4.205000E-8	1.380638E-2
4.210000E-8	1.350490E-2
4.215000E-8	1.332161E-2
4.220000E-8	1.322397E-2
4.225000E-8	1.318115E-2
4.230000E-8	1.323254E-2
4.235000E-8	1.337300E-2
4.240000E-8	1.355115E-2
4.245000E-8	1.386462E-2
4.250000E-8	1.422605E-2
4.255000E-8	1.463030E-2
4.260000E-8	1.513905E-2
4.265000E-8	1.571632E-2
4.270000E-8	1.635696E-2
4.275000E-8	1.701302E-2
4.280000E-8	1.768107E-2
4.285000E-8	1.836282E-2
4.290000E-8	1.904458E-2
4.295000E-8	1.969550E-2
4.300000E-8	2.032758E-2
4.305000E-8	2.088086E-2
4.310000E-8	2.138961E-2
4.315000E-8	2.182470E-2
4.320000E-8	2.215016E-2
4.325000E-8	2.241052E-2
4.330000E-8	2.254927E-2
4.335000E-8	2.268117E-2
4.340000E-8	2.275654E-2
4.345000E-8	2.280450E-2
4.350000E-8	2.285075E-2
4.355000E-8	2.283534E-2
4.360000E-8	2.277538E-2
4.365000E-8	2.264862E-2
4.370000E-8	2.246020E-2
4.375000E-8	2.220497E-2
4.380000E-8	2.189150E-2
4.385000E-8	2.152150E-2
4.390000E-8	2.112410E-2
4.395000E-8	2.063419E-2
4.400000E-8	2.007063E-2
4.405000E-8	1.947110E-2
4.410000E-8	1.883388E-2
4.415000E-8	1.818296E-2
4.420000E-8	1.749950E-2
4.425000E-8	1.681946E-2
4.430000E-8	1.617025E-2
4.435000E-8	1.552618E-2
4.440000E-8	1.492322E-2
4.445000E-8	1.434938E-2
4.450000E-8	1.380295E-2
4.455000E-8	1.333703E-2
4.460000E-8	1.294819E-2
4.465000E-8	1.261588E-2
4.470000E-8	1.237264E-2
4.475000E-8	1.224759E-2
4.480000E-8	1.224245E-2
4.485000E-8	1.232125E-2
4.490000E-8	1.248569E-2
4.495000E-8	1.273921E-2
4.500000E-8	1.304240E-2
4.505000E-8	1.343980E-2
4.510000E-8	1.389716E-2
4.515000E-8	1.438193E-2
4.520000E-8	1.491465E-2
4.525000E-8	1.544910E-2
4.530000E-8	1.603321E-2
4.535000E-8	1.662932E-2
4.540000E-8	1.722029E-2
4.545000E-8	1.778898E-2
4.550000E-8	1.834569E-2
4.555000E-8	1.887842E-2
4.560000E-8	1.937175E-2
4.565000E-8	1.984795E-2
4.570000E-8	2.027276E-2
4.575000E-8	2.065646E-2
4.580000E-8	2.092711E-2
4.585000E-8	2.113438E-2
4.590000E-8	2.131595E-2
4.595000E-8	2.143414E-2
4.600000E-8	2.147697E-2
4.605000E-8	2.147868E-2
4.610000E-8	2.141359E-2
4.615000E-8	2.126285E-2
4.620000E-8	2.105729E-2
4.625000E-8	2.074896E-2
4.630000E-8	2.037211E-2
4.635000E-8	1.993531E-2
4.640000E-8	1.946425E-2
4.645000E-8	1.896921E-2
4.650000E-8	1.846560E-2
4.655000E-8	1.793972E-2
4.660000E-8	1.737959E-2
4.665000E-8	1.679033E-2
4.670000E-8	1.622164E-2
4.675000E-8	1.570604E-2
4.680000E-8	1.519900E-2
4.685000E-8	1.473479E-2
4.690000E-8	1.426716E-2
4.695000E-8	1.387832E-2
4.700000E-8	1.351175E-2
4.705000E-8	1.319143E-2
4.710000E-8	1.289166E-2
4.715000E-8	1.264500E-2
4.720000E-8	1.247370E-2
4.725000E-8	1.231782E-2
4.730000E-8	1.225102E-2
4.735000E-8	1.222532E-2
4.740000E-8	1.230926E-2
4.745000E-8	1.247199E-2
4.750000E-8	1.273578E-2
4.755000E-8	1.307152E-2
4.760000E-8	1.349462E-2
4.765000E-8	1.399480E-2
4.770000E-8	1.458063E-2
4.775000E-8	1.524525E-2
4.780000E-8	1.587905E-2
4.785000E-8	1.655052E-2
4.790000E-8	1.718260E-2
4.795000E-8	1.776843E-2
4.800000E-8	1.828917E-2
4.805000E-8	1.875680E-2
4.810000E-8	1.918333E-2
4.815000E-8	1.953791E-2
4.820000E-8	1.985994E-2
4.825000E-8	2.012374E-2
4.830000E-8	2.033785E-2
4.835000E-8	2.053998E-2
4.840000E-8	2.068216E-2
4.845000E-8	2.077980E-2
4.850000E-8	2.082605E-2
4.855000E-8	2.080720E-2
4.860000E-8	2.075068E-2
4.865000E-8	2.066503E-2
4.870000E-8	2.051600E-2
4.875000E-8	2.033272E-2
4.880000E-8	2.003466E-2
4.885000E-8	1.965781E-2
4.890000E-8	1.921930E-2
4.895000E-8	1.874139E-2
4.900000E-8	1.826176E-2
4.905000E-8	1.776158E-2
4.910000E-8	1.728024E-2
4.915000E-8	1.677492E-2
4.920000E-8	1.630043E-2
4.925000E-8	1.588247E-2
4.930000E-8	1.547650E-2
4.935000E-8	1.509623E-2
4.940000E-8	1.473651E-2
4.945000E-8	1.435966E-2
4.950000E-8	1.397596E-2
4.955000E-8	1.365735E-2
4.960000E-8	1.337814E-2
4.965000E-8	1.312291E-2
4.970000E-8	1.291222E-2
4.975000E-8	1.275976E-2
4.980000E-8	1.264842E-2
4.985000E-8	1.261759E-2
4.990000E-8	1.268611E-2
4.995000E-8	1.282314E-2
5.000000E-8	1.303041E-2
5.005000E-8	1.333018E-2
5.010000E-8	1.368818E-2
5.015000E-8	1.408045E-2
5.020000E-8	1.452581E-2
5.025000E-8	1.502257E-2
5.030000E-8	1.554159E-2
5.035000E-8	1.613085E-2
5.040000E-8	1.676807E-2
5.045000E-8	1.740700E-2
5.050000E-8	1.805278E-2
5.055000E-8	1.864546E-2
5.060000E-8	1.917990E-2
5.065000E-8	1.964411E-2
5.070000E-8	2.005522E-2
5.075000E-8	2.038582E-2
5.080000E-8	2.062734E-2
5.085000E-8	2.076780E-2
5.090000E-8	2.082776E-2
5.095000E-8	2.077637E-2
5.100000E-8	2.064447E-2
5.105000E-8	2.046633E-2
5.110000E-8	2.026762E-2
5.115000E-8	2.001582E-2
5.120000E-8	1.975374E-2
5.125000E-8	1.945911E-2
5.130000E-8	1.917305E-2
5.135000E-8	1.884416E-2
5.140000E-8	1.851356E-2
5.145000E-8	1.812472E-2
5.150000E-8	1.774274E-2
5.155000E-8	1.735732E-2
5.160000E-8	1.692223E-2
5.165000E-8	1.644774E-2
5.170000E-8	1.596983E-2
5.175000E-8	1.549877E-2
5.180000E-8	1.501401E-2
5.185000E-8	1.453438E-2
5.190000E-8	1.408045E-2
5.195000E-8	1.362652E-2
5.200000E-8	1.322055E-2
5.205000E-8	1.287453E-2
5.210000E-8	1.258333E-2
5.215000E-8	1.234180E-2
5.220000E-8	1.219963E-2
5.225000E-8	1.211056E-2
5.230000E-8	1.206602E-2
5.235000E-8	1.210370E-2
5.240000E-8	1.219106E-2
5.245000E-8	1.233495E-2
5.250000E-8	1.247713E-2
5.255000E-8	1.269125E-2
5.260000E-8	1.294305E-2
5.265000E-8	1.321883E-2
5.270000E-8	1.350661E-2
5.275000E-8	1.389202E-2
5.280000E-8	1.426545E-2
5.285000E-8	1.466628E-2
5.290000E-8	1.512021E-2
5.295000E-8	1.556386E-2
5.300000E-8	1.603664E-2
5.305000E-8	1.647515E-2
5.310000E-8	1.692737E-2
5.315000E-8	1.736246E-2
5.320000E-8	1.775986E-2
5.325000E-8	1.811616E-2
5.330000E-8	1.843648E-2
5.335000E-8	1.873625E-2
5.340000E-8	1.894351E-2
5.345000E-8	1.908055E-2
5.350000E-8	1.915763E-2
5.355000E-8	1.917476E-2
5.360000E-8	1.909254E-2
5.365000E-8	1.895893E-2
5.370000E-8	1.875338E-2
5.375000E-8	1.847588E-2
5.380000E-8	1.816926E-2
5.385000E-8	1.777186E-2
5.390000E-8	1.734533E-2
5.395000E-8	1.695478E-2
5.400000E-8	1.656594E-2
5.405000E-8	1.617196E-2
5.410000E-8	1.577798E-2
5.415000E-8	1.543539E-2
5.420000E-8	1.506711E-2
5.425000E-8	1.474336E-2
5.430000E-8	1.439392E-2
5.435000E-8	1.405647E-2
5.440000E-8	1.376527E-2
5.445000E-8	1.344494E-2
5.450000E-8	1.311434E-2
5.455000E-8	1.277689E-2
5.460000E-8	1.247370E-2
5.465000E-8	1.222704E-2
5.470000E-8	1.206944E-2
5.475000E-8	1.195639E-2
5.480000E-8	1.191014E-2
5.485000E-8	1.195810E-2
5.490000E-8	1.206773E-2
5.495000E-8	1.222361E-2
5.500000E-8	1.241375E-2
5.505000E-8	1.266898E-2
5.510000E-8	1.290023E-2
5.515000E-8	1.319999E-2
5.520000E-8	1.348948E-2
5.525000E-8	1.375841E-2
5.530000E-8	1.402906E-2
5.535000E-8	1.434596E-2
5.540000E-8	1.464743E-2
5.545000E-8	1.494377E-2
5.550000E-8	1.528808E-2
5.555000E-8	1.563923E-2
5.560000E-8	1.602465E-2
5.565000E-8	1.641862E-2
5.570000E-8	1.677834E-2
5.575000E-8	1.711066E-2
5.580000E-8	1.740700E-2
5.585000E-8	1.764681E-2
5.590000E-8	1.785408E-2
5.595000E-8	1.799625E-2
5.600000E-8	1.803394E-2
5.605000E-8	1.797056E-2
5.610000E-8	1.783866E-2
5.615000E-8	1.766565E-2
5.620000E-8	1.743612E-2
5.625000E-8	1.718945E-2
5.630000E-8	1.697191E-2
5.635000E-8	1.675779E-2
5.640000E-8	1.653853E-2
5.645000E-8	1.633469E-2
5.650000E-8	1.614798E-2
5.655000E-8	1.594585E-2
5.660000E-8	1.564951E-2
5.665000E-8	1.531206E-2
5.670000E-8	1.492493E-2
5.675000E-8	1.450697E-2
5.680000E-8	1.405133E-2
5.685000E-8	1.353402E-2
5.690000E-8	1.303555E-2
5.695000E-8	1.252338E-2
5.700000E-8	1.205745E-2
5.705000E-8	1.168060E-2
5.710000E-8	1.139112E-2
5.715000E-8	1.120612E-2
5.720000E-8	1.112561E-2
5.725000E-8	1.113246E-2
5.730000E-8	1.124723E-2
5.735000E-8	1.143223E-2
5.740000E-8	1.163949E-2
5.745000E-8	1.185533E-2
5.750000E-8	1.208315E-2
5.755000E-8	1.226986E-2
5.760000E-8	1.239319E-2
5.765000E-8	1.251824E-2
5.770000E-8	1.267240E-2
5.775000E-8	1.280430E-2
5.780000E-8	1.302527E-2
5.785000E-8	1.325138E-2
5.790000E-8	1.351175E-2
5.795000E-8	1.385434E-2
5.800000E-8	1.426545E-2
5.805000E-8	1.467998E-2
5.810000E-8	1.514590E-2
5.815000E-8	1.563581E-2
5.820000E-8	1.602293E-2
5.825000E-8	1.641177E-2
5.830000E-8	1.674922E-2
5.835000E-8	1.700445E-2
5.840000E-8	1.719802E-2
5.845000E-8	1.731450E-2
5.850000E-8	1.734704E-2
5.855000E-8	1.730765E-2
5.860000E-8	1.721172E-2
5.865000E-8	1.705242E-2
5.870000E-8	1.691195E-2
5.875000E-8	1.671839E-2
5.880000E-8	1.653168E-2
5.885000E-8	1.631756E-2
5.890000E-8	1.612400E-2
5.895000E-8	1.590817E-2
5.900000E-8	1.565979E-2
5.905000E-8	1.538572E-2
5.910000E-8	1.512021E-2
5.915000E-8	1.480503E-2
5.920000E-8	1.446072E-2
5.925000E-8	1.413526E-2
5.930000E-8	1.377897E-2
5.935000E-8	1.346036E-2
5.940000E-8	1.310749E-2
5.945000E-8	1.276148E-2
5.950000E-8	1.249083E-2
5.955000E-8	1.225616E-2
5.960000E-8	1.206602E-2
5.965000E-8	1.193583E-2
5.970000E-8	1.186732E-2
5.975000E-8	1.186046E-2
5.980000E-8	1.187759E-2
5.985000E-8	1.196838E-2
5.990000E-8	1.207972E-2
5.995000E-8	1.217565E-2
6.000000E-8	1.226301E-2
6.005000E-8	1.233153E-2
6.010000E-8	1.241717E-2
6.015000E-8	1.248569E-2
6.020000E-8	1.257819E-2
6.025000E-8	1.269981E-2
6.030000E-8	1.281629E-2
6.035000E-8	1.300472E-2
6.040000E-8	1.323939E-2
6.045000E-8	1.347749E-2
6.050000E-8	1.378925E-2
6.055000E-8	1.409929E-2
6.060000E-8	1.434596E-2
6.065000E-8	1.462174E-2
6.070000E-8	1.487697E-2
6.075000E-8	1.511164E-2
6.080000E-8	1.532234E-2
6.085000E-8	1.548164E-2
6.090000E-8	1.561183E-2
6.095000E-8	1.572145E-2
6.100000E-8	1.580539E-2
6.105000E-8	1.584821E-2
6.110000E-8	1.585164E-2
6.115000E-8	1.581053E-2
6.120000E-8	1.574715E-2
6.125000E-8	1.567520E-2
6.130000E-8	1.558956E-2
6.135000E-8	1.546451E-2
6.140000E-8	1.533775E-2
6.145000E-8	1.519044E-2
6.150000E-8	1.501914E-2
6.155000E-8	1.482044E-2
6.160000E-8	1.460118E-2
6.165000E-8	1.435623E-2
6.170000E-8	1.409415E-2
6.175000E-8	1.384063E-2
6.180000E-8	1.359740E-2
6.185000E-8	1.335758E-2
6.190000E-8	1.313490E-2
6.195000E-8	1.291907E-2
6.200000E-8	1.267754E-2
6.205000E-8	1.245143E-2
6.210000E-8	1.225444E-2
6.215000E-8	1.209514E-2
6.220000E-8	1.196838E-2
6.225000E-8	1.185533E-2
6.230000E-8	1.176968E-2
6.235000E-8	1.169088E-2
6.240000E-8	1.166005E-2
6.245000E-8	1.164806E-2
6.250000E-8	1.165148E-2
6.255000E-8	1.168746E-2
6.260000E-8	1.178338E-2
6.265000E-8	1.191185E-2
6.270000E-8	1.210028E-2
6.275000E-8	1.226815E-2
6.280000E-8	1.247199E-2
6.285000E-8	1.268782E-2
6.290000E-8	1.286939E-2
6.295000E-8	1.305610E-2
6.300000E-8	1.322226E-2
6.305000E-8	1.335930E-2
6.310000E-8	1.349462E-2
6.315000E-8	1.365392E-2
6.320000E-8	1.379952E-2
6.325000E-8	1.391943E-2
6.330000E-8	1.411985E-2
6.335000E-8	1.425517E-2
6.340000E-8	1.439392E-2
6.345000E-8	1.456521E-2
6.350000E-8	1.474165E-2
6.355000E-8	1.487183E-2
6.360000E-8	1.496776E-2
6.365000E-8	1.504141E-2
6.370000E-8	1.507225E-2
6.375000E-8	1.506539E-2
6.380000E-8	1.502942E-2
6.385000E-8	1.487868E-2
6.390000E-8	1.467484E-2
6.395000E-8	1.444702E-2
6.400000E-8	1.417123E-2
6.405000E-8	1.391772E-2
6.410000E-8	1.365735E-2
6.415000E-8	1.343980E-2
6.420000E-8	1.319999E-2
6.425000E-8	1.298073E-2
6.430000E-8	1.279231E-2
6.435000E-8	1.255421E-2
6.440000E-8	1.230754E-2
6.445000E-8	1.205232E-2
6.450000E-8	1.182278E-2
6.455000E-8	1.155042E-2
6.460000E-8	1.126265E-2
6.465000E-8	1.102112E-2
6.470000E-8	1.072820E-2
6.475000E-8	1.052608E-2
6.480000E-8	1.039589E-2
6.485000E-8	1.030682E-2
6.490000E-8	1.027941E-2
6.495000E-8	1.031367E-2
6.500000E-8	1.035821E-2
6.505000E-8	1.040960E-2
6.510000E-8	1.050895E-2
6.515000E-8	1.064427E-2
6.520000E-8	1.075904E-2
6.525000E-8	1.089950E-2
6.530000E-8	1.104510E-2
6.535000E-8	1.120098E-2
6.540000E-8	1.135686E-2
6.545000E-8	1.154528E-2
6.550000E-8	1.179366E-2
6.555000E-8	1.208657E-2
6.560000E-8	1.237435E-2
6.565000E-8	1.268953E-2
6.570000E-8	1.303212E-2
6.575000E-8	1.339869E-2
6.580000E-8	1.370189E-2
6.585000E-8	1.396911E-2
6.590000E-8	1.417980E-2
6.595000E-8	1.434596E-2
6.600000E-8	1.444188E-2
6.605000E-8	1.448984E-2
6.610000E-8	1.450526E-2
6.615000E-8	1.445216E-2
6.620000E-8	1.433225E-2
6.625000E-8	1.424489E-2
6.630000E-8	1.410100E-2
6.635000E-8	1.391600E-2
6.640000E-8	1.372929E-2
6.645000E-8	1.351175E-2
6.650000E-8	1.331819E-2
6.655000E-8	1.312976E-2
6.660000E-8	1.294476E-2
6.665000E-8	1.274092E-2
6.670000E-8	1.256449E-2
6.675000E-8	1.238977E-2
6.680000E-8	1.219620E-2
6.685000E-8	1.198722E-2
6.690000E-8	1.178167E-2
6.695000E-8	1.156412E-2
6.700000E-8	1.131917E-2
6.705000E-8	1.111019E-2
6.710000E-8	1.094232E-2
6.715000E-8	1.075390E-2
6.720000E-8	1.055691E-2
6.725000E-8	1.038219E-2
6.730000E-8	1.025029E-2
6.735000E-8	1.016464E-2
6.740000E-8	1.008414E-2
6.745000E-8	1.005502E-2
6.750000E-8	1.007900E-2
6.755000E-8	1.013039E-2
6.760000E-8	1.023488E-2
6.765000E-8	1.039075E-2
6.770000E-8	1.059288E-2
6.775000E-8	1.081043E-2
6.780000E-8	1.105709E-2
6.785000E-8	1.134315E-2
6.790000E-8	1.160866E-2
6.795000E-8	1.187931E-2
6.800000E-8	1.216880E-2
6.805000E-8	1.242403E-2
6.810000E-8	1.274435E-2
6.815000E-8	1.297388E-2
6.820000E-8	1.312633E-2
6.825000E-8	1.324624E-2
6.830000E-8	1.332504E-2
6.835000E-8	1.336786E-2
6.840000E-8	1.333531E-2
6.845000E-8	1.328564E-2
6.850000E-8	1.321541E-2
6.855000E-8	1.317944E-2
6.860000E-8	1.312633E-2
6.865000E-8	1.306809E-2
6.870000E-8	1.301842E-2
6.875000E-8	1.299615E-2
6.880000E-8	1.298073E-2
6.885000E-8	1.298245E-2
6.890000E-8	1.301842E-2
6.895000E-8	1.301328E-2
6.900000E-8	1.298245E-2
6.905000E-8	1.293277E-2
6.910000E-8	1.284199E-2
6.915000E-8	1.272379E-2
6.920000E-8	1.256277E-2
6.925000E-8	1.234009E-2
6.930000E-8	1.210713E-2
6.935000E-8	1.187759E-2
6.940000E-8	1.167547E-2
6.945000E-8	1.148875E-2
6.950000E-8	1.132945E-2
6.955000E-8	1.119927E-2
6.960000E-8	1.109135E-2
6.965000E-8	1.103482E-2
6.970000E-8	1.100742E-2
6.975000E-8	1.099885E-2
6.980000E-8	1.094061E-2
6.985000E-8	1.090978E-2
6.990000E-8	1.090806E-2
6.995000E-8	1.089950E-2
7.000000E-8	1.091492E-2
7.005000E-8	1.093033E-2
7.010000E-8	1.091492E-2
7.015000E-8	1.092862E-2
7.020000E-8	1.094232E-2
7.025000E-8	1.096117E-2
7.030000E-8	1.099885E-2
7.035000E-8	1.108964E-2
7.040000E-8	1.118556E-2
7.045000E-8	1.133288E-2
7.050000E-8	1.156584E-2
7.055000E-8	1.181079E-2
7.060000E-8	1.207630E-2
7.065000E-8	1.230754E-2
7.070000E-8	1.255764E-2
7.075000E-8	1.274777E-2
7.080000E-8	1.290194E-2
7.085000E-8	1.302698E-2
7.090000E-8	1.308522E-2
7.095000E-8	1.309208E-2
7.100000E-8	1.299444E-2
7.105000E-8	1.284541E-2
7.110000E-8	1.269981E-2
7.115000E-8	1.249597E-2
7.120000E-8	1.225616E-2
7.125000E-8	1.204546E-2
7.130000E-8	1.186903E-2
7.135000E-8	1.173885E-2
7.140000E-8	1.161723E-2
7.145000E-8	1.151274E-2
7.150000E-8	1.148190E-2
7.155000E-8	1.146135E-2
7.160000E-8	1.141338E-2
7.165000E-8	1.140825E-2
7.170000E-8	1.142538E-2
7.175000E-8	1.139968E-2
7.180000E-8	1.137570E-2
7.185000E-8	1.134315E-2
7.190000E-8	1.122667E-2
7.195000E-8	1.104339E-2
7.200000E-8	1.086010E-2
7.205000E-8	1.062714E-2
7.210000E-8	1.039075E-2
7.215000E-8	1.017492E-2
7.220000E-8	1.000363E-2
7.225000E-8	9.820341E-3
7.230000E-8	9.724416E-3
7.235000E-8	9.673027E-3
7.240000E-8	9.688444E-3
7.245000E-8	9.760388E-3
7.250000E-8	9.882007E-3
7.255000E-8	1.004302E-2
7.260000E-8	1.020918E-2
7.265000E-8	1.037876E-2
7.270000E-8	1.055348E-2
7.275000E-8	1.068196E-2
7.280000E-8	1.075047E-2
7.285000E-8	1.080700E-2
7.290000E-8	1.082413E-2
7.295000E-8	1.084469E-2
7.300000E-8	1.087209E-2
7.305000E-8	1.089950E-2
7.310000E-8	1.096459E-2
7.315000E-8	1.102626E-2
7.320000E-8	1.114445E-2
7.325000E-8	1.126778E-2
7.330000E-8	1.140139E-2
7.335000E-8	1.154357E-2
7.340000E-8	1.165148E-2
7.345000E-8	1.181250E-2
7.350000E-8	1.193583E-2
7.355000E-8	1.201977E-2
7.360000E-8	1.207630E-2
7.365000E-8	1.212426E-2
7.370000E-8	1.210713E-2
7.375000E-8	1.209514E-2
7.380000E-8	1.206431E-2
7.385000E-8	1.201463E-2
7.390000E-8	1.195468E-2
7.395000E-8	1.189644E-2
7.400000E-8	1.177139E-2
7.405000E-8	1.163778E-2
7.410000E-8	1.145963E-2
7.415000E-8	1.127806E-2
7.420000E-8	1.109649E-2
7.425000E-8	1.091149E-2
7.430000E-8	1.076932E-2
7.435000E-8	1.063057E-2
7.440000E-8	1.052265E-2
7.445000E-8	1.043186E-2
7.450000E-8	1.040617E-2
7.455000E-8	1.038048E-2
7.460000E-8	1.038390E-2
7.465000E-8	1.040788E-2
7.470000E-8	1.045413E-2
7.475000E-8	1.047469E-2
7.480000E-8	1.046270E-2
7.485000E-8	1.045585E-2
7.490000E-8	1.040788E-2
7.495000E-8	1.031538E-2
7.500000E-8	1.022288E-2
7.505000E-8	1.012525E-2
7.510000E-8	9.996775E-3
7.515000E-8	9.883720E-3
7.520000E-8	9.792934E-3
7.525000E-8	9.717564E-3
7.530000E-8	9.690157E-3
7.535000E-8	9.661037E-3
7.540000E-8	9.697009E-3
7.545000E-8	9.748397E-3
7.550000E-8	9.870017E-3
7.555000E-8	9.977933E-3
7.560000E-8	1.009955E-2
7.565000E-8	1.024173E-2
7.570000E-8	1.037876E-2
7.575000E-8	1.053122E-2
7.580000E-8	1.069395E-2
7.585000E-8	1.084982E-2
7.590000E-8	1.096973E-2
7.595000E-8	1.107936E-2
7.600000E-8	1.113760E-2
7.605000E-8	1.118385E-2
7.610000E-8	1.121640E-2
7.615000E-8	1.122839E-2
7.620000E-8	1.121126E-2
7.625000E-8	1.118214E-2
7.630000E-8	1.114788E-2
7.635000E-8	1.114103E-2
7.640000E-8	1.108792E-2
7.645000E-8	1.103654E-2
7.650000E-8	1.104510E-2
7.655000E-8	1.104339E-2
7.660000E-8	1.104853E-2
7.665000E-8	1.102797E-2
7.670000E-8	1.099371E-2
7.675000E-8	1.097316E-2
7.680000E-8	1.092006E-2
7.685000E-8	1.084640E-2
7.690000E-8	1.077103E-2
7.695000E-8	1.070936E-2
7.700000E-8	1.065112E-2
7.705000E-8	1.054492E-2
7.710000E-8	1.042844E-2
7.715000E-8	1.030339E-2
7.720000E-8	1.014923E-2
7.725000E-8	9.981358E-3
7.730000E-8	9.844322E-3
7.735000E-8	9.722703E-3
7.740000E-8	9.597658E-3
7.745000E-8	9.515436E-3
7.750000E-8	9.446918E-3
7.755000E-8	9.369835E-3
7.760000E-8	9.320160E-3
7.765000E-8	9.364696E-3
7.770000E-8	9.397243E-3
7.775000E-8	9.422937E-3
7.780000E-8	9.501732E-3
7.785000E-8	9.597658E-3
7.790000E-8	9.678166E-3
7.795000E-8	9.798073E-3
7.800000E-8	9.924831E-3
7.805000E-8	1.006015E-2
7.810000E-8	1.020233E-2
7.815000E-8	1.028626E-2
7.820000E-8	1.037534E-2
7.825000E-8	1.041131E-2
7.830000E-8	1.043015E-2
7.835000E-8	1.043186E-2
7.840000E-8	1.040617E-2
7.845000E-8	1.035649E-2
7.850000E-8	1.033594E-2
7.855000E-8	1.028284E-2
7.860000E-8	1.022288E-2
7.865000E-8	1.020747E-2
7.870000E-8	1.023488E-2
7.875000E-8	1.030339E-2
7.880000E-8	1.036163E-2
7.885000E-8	1.041987E-2
7.890000E-8	1.042673E-2
7.895000E-8	1.041816E-2
7.900000E-8	1.035821E-2
7.905000E-8	1.027941E-2
7.910000E-8	1.014238E-2
7.915000E-8	9.981358E-3
7.920000E-8	9.796360E-3
7.925000E-8	9.606222E-3
7.930000E-8	9.440066E-3
7.935000E-8	9.284188E-3
7.940000E-8	9.145439E-3
7.945000E-8	9.058078E-3
7.950000E-8	9.030671E-3
7.955000E-8	9.078634E-3
7.960000E-8	9.169420E-3
7.965000E-8	9.272197E-3
7.970000E-8	9.393817E-3
7.975000E-8	9.525714E-3
7.980000E-8	9.642194E-3
7.985000E-8	9.690157E-3
7.990000E-8	9.688444E-3
7.995000E-8	9.638768E-3
8.000000E-8	9.556547E-3
8.005000E-8	9.433214E-3
8.010000E-8	9.335576E-3
8.015000E-8	9.251642E-3
8.020000E-8	9.205392E-3
8.025000E-8	9.189976E-3
8.030000E-8	9.234512E-3
8.035000E-8	9.306456E-3
8.040000E-8	9.428076E-3
8.045000E-8	9.554834E-3
8.050000E-8	9.753536E-3
8.055000E-8	9.979646E-3
8.060000E-8	1.016636E-2
8.065000E-8	1.035307E-2
8.070000E-8	1.050723E-2
8.075000E-8	1.059117E-2
8.080000E-8	1.062885E-2
8.085000E-8	1.062543E-2
8.090000E-8	1.058260E-2
8.095000E-8	1.052265E-2
8.100000E-8	1.045413E-2
8.105000E-8	1.034793E-2
8.110000E-8	1.024344E-2
8.115000E-8	1.016978E-2
8.120000E-8	1.012182E-2
8.125000E-8	1.004474E-2
8.130000E-8	9.983071E-3
8.135000E-8	9.931683E-3
8.140000E-8	9.893998E-3
8.145000E-8	9.911128E-3
8.150000E-8	9.936822E-3
8.155000E-8	9.933396E-3
8.160000E-8	9.907702E-3
8.165000E-8	9.876869E-3
8.170000E-8	9.835758E-3
8.175000E-8	9.748397E-3
8.180000E-8	9.698722E-3
8.185000E-8	9.633630E-3
8.190000E-8	9.559973E-3
8.195000E-8	9.481177E-3
8.200000E-8	9.388678E-3
8.205000E-8	9.301317E-3
8.210000E-8	9.227660E-3
8.215000E-8	9.167707E-3
8.220000E-8	9.106041E-3
8.225000E-8	9.070069E-3
8.230000E-8	9.054652E-3
8.235000E-8	9.030671E-3
8.240000E-8	9.013542E-3
8.245000E-8	9.001551E-3
8.250000E-8	8.974144E-3
8.255000E-8	8.962153E-3
8.260000E-8	8.934746E-3
8.265000E-8	8.874793E-3
8.270000E-8	8.809701E-3
8.275000E-8	8.758312E-3
8.280000E-8	8.676091E-3
8.285000E-8	8.619563E-3
8.290000E-8	8.581878E-3
8.295000E-8	8.575026E-3
8.300000E-8	8.619563E-3
8.305000E-8	8.658961E-3
8.310000E-8	8.758312E-3
8.315000E-8	8.855950E-3
8.320000E-8	8.948450E-3
8.325000E-8	9.052940E-3
8.330000E-8	9.111180E-3
8.335000E-8	9.154004E-3
8.340000E-8	9.157429E-3
8.345000E-8	9.189976E-3
8.350000E-8	9.176272E-3
8.355000E-8	9.145439E-3
8.360000E-8	9.114606E-3
8.365000E-8	9.034097E-3
8.370000E-8	9.015255E-3
8.375000E-8	8.963866E-3
8.380000E-8	8.922755E-3
8.385000E-8	8.900487E-3
8.390000E-8	8.909052E-3
8.395000E-8	8.939885E-3
8.400000E-8	8.969005E-3
8.405000E-8	9.035810E-3
8.410000E-8	9.085486E-3
8.415000E-8	9.107754E-3
8.420000E-8	9.133448E-3
8.425000E-8	9.160855E-3
8.430000E-8	9.213957E-3
8.435000E-8	9.217383E-3
8.440000E-8	9.200253E-3
8.445000E-8	9.186550E-3
8.450000E-8	9.212244E-3
8.455000E-8	9.246503E-3
8.460000E-8	9.277336E-3
8.465000E-8	9.289327E-3
8.470000E-8	9.273910E-3
8.475000E-8	9.213957E-3
8.480000E-8	9.083773E-3
8.485000E-8	8.941598E-3
8.490000E-8	8.789145E-3
8.495000E-8	8.592156E-3
8.500000E-8	8.455120E-3
8.505000E-8	8.314658E-3
8.510000E-8	8.184474E-3
8.515000E-8	8.110817E-3
8.520000E-8	8.045725E-3
8.525000E-8	8.067993E-3
8.530000E-8	8.141650E-3
8.535000E-8	8.273547E-3
8.540000E-8	8.417435E-3
8.545000E-8	8.593869E-3
8.550000E-8	8.777155E-3
8.555000E-8	8.934746E-3
8.560000E-8	9.073495E-3
8.565000E-8	9.224235E-3
8.570000E-8	9.352706E-3
8.575000E-8	9.433214E-3
8.580000E-8	9.479464E-3
8.585000E-8	9.541130E-3
8.590000E-8	9.563399E-3
8.595000E-8	9.527427E-3
8.600000E-8	9.470899E-3
8.605000E-8	9.380113E-3
8.610000E-8	9.306456E-3
8.615000E-8	9.244790E-3
8.620000E-8	9.188263E-3
8.625000E-8	9.148865E-3
8.630000E-8	9.102615E-3
8.635000E-8	9.066643E-3
8.640000E-8	9.068356E-3
8.645000E-8	9.066643E-3
8.650000E-8	9.097476E-3
8.655000E-8	9.133448E-3
8.660000E-8	9.133448E-3
8.665000E-8	9.143726E-3
8.670000E-8	9.147152E-3
8.675000E-8	9.068356E-3
8.680000E-8	8.967292E-3
8.685000E-8	8.843960E-3
8.690000E-8	8.696646E-3
8.695000E-8	8.544193E-3
8.700000E-8	8.342065E-3
8.705000E-8	8.193039E-3
8.710000E-8	8.021744E-3
8.715000E-8	7.867578E-3
8.720000E-8	7.739107E-3
8.725000E-8	7.691144E-3
8.730000E-8	7.715126E-3
8.735000E-8	7.799060E-3
8.740000E-8	7.891559E-3
8.745000E-8	8.032021E-3
8.750000E-8	8.175909E-3
8.755000E-8	8.264983E-3
8.760000E-8	8.371185E-3
8.765000E-8	8.455120E-3
8.770000E-8	8.480814E-3
8.775000E-8	8.458546E-3
8.780000E-8	8.378037E-3
8.785000E-8	8.273547E-3
8.790000E-8	8.127947E-3
8.795000E-8	8.011466E-3
8.800000E-8	7.881282E-3
8.805000E-8	7.776792E-3
8.810000E-8	7.740820E-3
8.815000E-8	7.751098E-3
8.820000E-8	7.811051E-3
8.825000E-8	7.924105E-3
8.830000E-8	8.057716E-3
8.835000E-8	8.206742E-3
8.840000E-8	8.402019E-3
8.845000E-8	8.595582E-3
8.850000E-8	8.770303E-3
8.855000E-8	8.878219E-3
8.860000E-8	8.929607E-3
8.865000E-8	8.879932E-3
8.870000E-8	8.794284E-3
8.875000E-8	8.698359E-3
8.880000E-8	8.583591E-3
8.885000E-8	8.480814E-3
8.890000E-8	8.362621E-3
8.895000E-8	8.256418E-3
8.900000E-8	8.172483E-3
8.905000E-8	8.124521E-3
8.910000E-8	8.129659E-3
8.915000E-8	8.151928E-3
8.920000E-8	8.211881E-3
8.925000E-8	8.282112E-3
8.930000E-8	8.354056E-3
8.935000E-8	8.400306E-3
8.940000E-8	8.393454E-3
8.945000E-8	8.367760E-3
8.950000E-8	8.328362E-3
8.955000E-8	8.235862E-3
8.960000E-8	8.143363E-3
8.965000E-8	8.021744E-3
8.970000E-8	7.927531E-3
8.975000E-8	7.826467E-3
8.980000E-8	7.732255E-3
8.985000E-8	7.675728E-3
8.990000E-8	7.648320E-3
8.995000E-8	7.668876E-3
9.000000E-8	7.732255E-3
9.005000E-8	7.836745E-3
9.010000E-8	7.960077E-3
9.015000E-8	8.081697E-3
9.020000E-8	8.181048E-3
9.025000E-8	8.263270E-3
9.030000E-8	8.326649E-3
9.035000E-8	8.352343E-3
9.040000E-8	8.350630E-3
9.045000E-8	8.326649E-3
9.050000E-8	8.270121E-3
9.055000E-8	8.211881E-3
9.060000E-8	8.145076E-3
9.065000E-8	8.097113E-3
9.070000E-8	8.079984E-3
9.075000E-8	8.071419E-3
9.080000E-8	8.071419E-3
9.085000E-8	8.061141E-3
9.090000E-8	8.122808E-3
9.095000E-8	8.158780E-3
9.100000E-8	8.169057E-3
9.105000E-8	8.208455E-3
9.110000E-8	8.227298E-3
9.115000E-8	8.235862E-3
9.120000E-8	8.218733E-3
9.125000E-8	8.217020E-3
9.130000E-8	8.225585E-3
9.135000E-8	8.222159E-3
9.140000E-8	8.220446E-3
9.145000E-8	8.254705E-3
9.150000E-8	8.304380E-3
9.155000E-8	8.288964E-3
9.160000E-8	8.264983E-3
9.165000E-8	8.225585E-3
9.170000E-8	8.184474E-3
9.175000E-8	8.114243E-3
9.180000E-8	8.044012E-3
9.185000E-8	7.963503E-3
9.190000E-8	7.877856E-3
9.195000E-8	7.811051E-3
9.200000E-8	7.694570E-3
9.205000E-8	7.583228E-3
9.210000E-8	7.473600E-3
9.215000E-8	7.406795E-3
9.220000E-8	7.386239E-3
9.225000E-8	7.367397E-3
9.230000E-8	7.369110E-3
9.235000E-8	7.396517E-3
9.240000E-8	7.489016E-3
9.245000E-8	7.617487E-3
9.250000E-8	7.735681E-3
9.255000E-8	7.877856E-3
9.260000E-8	7.999475E-3
9.265000E-8	8.091975E-3
9.270000E-8	8.175909E-3
9.275000E-8	8.249566E-3
9.280000E-8	8.295816E-3
9.285000E-8	8.302667E-3
9.290000E-8	8.294103E-3
9.295000E-8	8.252992E-3
9.300000E-8	8.210168E-3
9.305000E-8	8.174196E-3
9.310000E-8	8.163918E-3
9.315000E-8	8.129659E-3
9.320000E-8	8.150215E-3
9.325000E-8	8.181048E-3
9.330000E-8	8.229011E-3
9.335000E-8	8.318084E-3
9.340000E-8	8.400306E-3
9.345000E-8	8.451694E-3
9.350000E-8	8.477388E-3
9.355000E-8	8.503083E-3
9.360000E-8	8.504796E-3
9.365000E-8	8.470537E-3
9.370000E-8	8.410583E-3
9.375000E-8	8.316371E-3
9.380000E-8	8.186187E-3
9.385000E-8	8.037160E-3
9.390000E-8	7.918967E-3
9.395000E-8	7.773366E-3
9.400000E-8	7.679154E-3
9.405000E-8	7.579802E-3
9.410000E-8	7.512997E-3
9.415000E-8	7.482164E-3
9.420000E-8	7.430776E-3
9.425000E-8	7.415359E-3
9.430000E-8	7.365684E-3
9.435000E-8	7.372536E-3
9.440000E-8	7.326286E-3
9.445000E-8	7.259481E-3
9.450000E-8	7.220083E-3
9.455000E-8	7.156704E-3
9.460000E-8	7.103602E-3
9.465000E-8	7.079621E-3
9.470000E-8	7.065917E-3
9.475000E-8	7.062492E-3
9.480000E-8	7.079621E-3
9.485000E-8	7.144713E-3
9.490000E-8	7.201241E-3
9.495000E-8	7.288601E-3
9.500000E-8	7.369110E-3
9.505000E-8	7.430776E-3
9.510000E-8	7.478738E-3
9.515000E-8	7.482164E-3
9.520000E-8	7.447905E-3
9.525000E-8	7.411933E-3
9.530000E-8	7.309156E-3
9.535000E-8	7.182398E-3
9.540000E-8	7.040223E-3
9.545000E-8	6.927169E-3
9.550000E-8	6.807262E-3
9.555000E-8	6.694207E-3
9.560000E-8	6.601708E-3
9.565000E-8	6.572588E-3
9.570000E-8	6.591430E-3
9.575000E-8	6.651384E-3
9.580000E-8	6.713050E-3
9.585000E-8	6.832956E-3
9.590000E-8	6.937446E-3
9.595000E-8	7.072769E-3
9.600000E-8	7.214944E-3
9.605000E-8	7.304018E-3
9.610000E-8	7.363971E-3
9.615000E-8	7.430776E-3
9.620000E-8	7.439341E-3
9.625000E-8	7.411933E-3
9.630000E-8	7.386239E-3
9.635000E-8	7.377674E-3
9.640000E-8	7.360545E-3
9.645000E-8	7.348554E-3
9.650000E-8	7.341702E-3
9.655000E-8	7.357119E-3
9.660000E-8	7.381100E-3
9.665000E-8	7.396517E-3
9.670000E-8	7.377674E-3
9.675000E-8	7.374248E-3
9.680000E-8	7.357119E-3
9.685000E-8	7.286888E-3
9.690000E-8	7.226935E-3
9.695000E-8	7.163556E-3
9.700000E-8	7.117306E-3
9.705000E-8	7.071056E-3
9.710000E-8	7.036797E-3
9.715000E-8	7.000825E-3
9.720000E-8	7.002538E-3
9.725000E-8	7.011103E-3
9.730000E-8	7.072769E-3
9.735000E-8	7.137861E-3
9.740000E-8	7.204666E-3
9.745000E-8	7.237212E-3
9.750000E-8	7.252629E-3
9.755000E-8	7.202953E-3
9.760000E-8	7.143000E-3
9.765000E-8	7.065917E-3
9.770000E-8	6.959715E-3
9.775000E-8	6.853512E-3
9.780000E-8	6.779855E-3
9.785000E-8	6.701059E-3
9.790000E-8	6.649671E-3
9.795000E-8	6.644532E-3
9.800000E-8	6.671939E-3
9.805000E-8	6.742170E-3
9.810000E-8	6.831243E-3
9.815000E-8	6.918604E-3
9.820000E-8	7.011103E-3
9.825000E-8	7.081334E-3
9.830000E-8	7.107028E-3
9.835000E-8	7.136148E-3
9.840000E-8	7.125871E-3
9.845000E-8	7.057353E-3
9.850000E-8	7.016242E-3
9.855000E-8	6.964853E-3
9.860000E-8	6.884345E-3
9.865000E-8	6.793558E-3
9.870000E-8	6.745596E-3
9.875000E-8	6.692494E-3
9.880000E-8	6.654809E-3
9.885000E-8	6.659948E-3
9.890000E-8	6.683930E-3
9.895000E-8	6.706198E-3
9.900000E-8	6.714763E-3
9.905000E-8	6.774716E-3
9.910000E-8	6.829530E-3
9.915000E-8	6.841521E-3
9.920000E-8	6.848373E-3
9.925000E-8	6.836382E-3
9.930000E-8	6.848373E-3
9.935000E-8	6.853512E-3
9.940000E-8	6.838095E-3
9.945000E-8	6.793558E-3
9.950000E-8	6.761012E-3
9.955000E-8	6.709624E-3
9.960000E-8	6.629115E-3
9.965000E-8	6.593143E-3
9.970000E-8	6.572588E-3
9.975000E-8	6.570875E-3
9.980000E-8	6.562310E-3
9.985000E-8	6.558884E-3
9.990000E-8	6.555458E-3
9.995000E-8	6.562310E-3
1.000000E-7	6.599995E-3
1.000500E-7	6.603421E-3
1.001000E-7	6.641106E-3
1.001500E-7	6.685643E-3
1.002000E-7	6.707911E-3
1.002500E-7	6.719902E-3
1.003000E-7	6.788420E-3
1.003500E-7	6.771290E-3
1.004000E-7	6.747309E-3
1.004500E-7	6.706198E-3
1.005000E-7	6.646245E-3
1.005500E-7	6.562310E-3
1.006000E-7	6.492079E-3
1.006500E-7	6.387589E-3
1.007000E-7	6.272822E-3
1.007500E-7	6.158054E-3
1.008000E-7	6.099814E-3
1.008500E-7	6.087823E-3
1.009000E-7	6.086110E-3
1.009500E-7	6.123795E-3
1.010000E-7	6.216294E-3
1.010500E-7	6.295090E-3
1.011000E-7	6.406432E-3
1.011500E-7	6.553745E-3
1.012000E-7	6.714763E-3
1.012500E-7	6.841521E-3
1.013000E-7	6.959715E-3
1.013500E-7	6.973418E-3
1.014000E-7	6.963140E-3
1.014500E-7	6.935733E-3
1.015000E-7	6.892910E-3
1.015500E-7	6.815827E-3
1.016000E-7	6.750735E-3
1.016500E-7	6.713050E-3
1.017000E-7	6.677078E-3
1.017500E-7	6.594856E-3
1.018000E-7	6.570875E-3
1.018500E-7	6.536616E-3
1.019000E-7	6.483514E-3
1.019500E-7	6.440691E-3
1.020000E-7	6.394441E-3
1.020500E-7	6.315645E-3
1.021000E-7	6.236850E-3
1.021500E-7	6.173471E-3
1.022000E-7	6.128934E-3
1.022500E-7	6.072406E-3
1.023000E-7	6.053564E-3
1.023500E-7	6.043286E-3
1.024000E-7	6.039860E-3
1.024500E-7	6.050138E-3
1.025000E-7	6.127221E-3
1.025500E-7	6.235137E-3
1.026000E-7	6.332775E-3
1.026500E-7	6.426987E-3
1.027000E-7	6.538329E-3
1.027500E-7	6.651384E-3
1.028000E-7	6.692494E-3
1.028500E-7	6.749022E-3
1.029000E-7	6.718189E-3
1.029500E-7	6.632541E-3
1.030000E-7	6.540042E-3
1.030500E-7	6.414996E-3
1.031000E-7	6.291664E-3
1.031500E-7	6.209442E-3
1.032000E-7	6.161480E-3
1.032500E-7	6.163193E-3
1.033000E-7	6.200878E-3
1.033500E-7	6.327636E-3
1.034000E-7	6.476663E-3
1.034500E-7	6.599995E-3
1.035000E-7	6.766151E-3
1.035500E-7	6.944298E-3
1.036000E-7	7.028233E-3
1.036500E-7	7.069343E-3
1.037000E-7	7.062492E-3
1.037500E-7	7.011103E-3
1.038000E-7	6.925456E-3
1.038500E-7	6.848373E-3
1.039000E-7	6.716476E-3
1.039500E-7	6.588004E-3
1.040000E-7	6.476663E-3
1.040500E-7	6.401293E-3
1.041000E-7	6.355043E-3
1.041500E-7	6.341340E-3
1.042000E-7	6.336201E-3
1.042500E-7	6.325923E-3
1.043000E-7	6.351617E-3
1.043500E-7	6.404719E-3
1.044000E-7	6.473237E-3
1.044500E-7	6.540042E-3
1.045000E-7	6.599995E-3
1.045500E-7	6.594856E-3
1.046000E-7	6.574301E-3
1.046500E-7	6.524625E-3
1.047000E-7	6.432126E-3
1.047500E-7	6.301942E-3
1.048000E-7	6.212868E-3
1.048500E-7	6.118656E-3
1.049000E-7	6.072406E-3
1.049500E-7	6.005601E-3
1.050000E-7	5.933657E-3
1.050500E-7	5.890834E-3
1.051000E-7	5.808612E-3
1.051500E-7	5.776066E-3
1.052000E-7	5.740094E-3
1.052500E-7	5.734955E-3
1.053000E-7	5.700696E-3
1.053500E-7	5.698983E-3
1.054000E-7	5.717826E-3
1.054500E-7	5.724678E-3
1.055000E-7	5.736668E-3
1.055500E-7	5.784631E-3
1.056000E-7	5.837732E-3
1.056500E-7	5.883982E-3
1.057000E-7	5.959352E-3
1.057500E-7	6.027870E-3
1.058000E-7	6.077545E-3
1.058500E-7	6.132360E-3
1.059000E-7	6.159767E-3
1.059500E-7	6.185461E-3
1.060000E-7	6.202591E-3
1.060500E-7	6.168332E-3
1.061000E-7	6.137499E-3
1.061500E-7	6.056990E-3
1.062000E-7	5.983333E-3
1.062500E-7	5.911389E-3
1.063000E-7	5.873704E-3
1.063500E-7	5.825742E-3
1.064000E-7	5.824029E-3
1.064500E-7	5.837732E-3
1.065000E-7	5.909676E-3
1.065500E-7	5.976481E-3
1.066000E-7	6.048425E-3
1.066500E-7	6.104953E-3
1.067000E-7	6.146063E-3
1.067500E-7	6.163193E-3
1.068000E-7	6.206017E-3
1.068500E-7	6.211155E-3
1.069000E-7	6.142637E-3
1.069500E-7	6.106665E-3
1.070000E-7	6.084397E-3
1.070500E-7	6.044999E-3
1.071000E-7	6.027870E-3
1.071500E-7	6.027870E-3
1.072000E-7	6.048425E-3
1.072500E-7	6.086110E-3
1.073000E-7	6.116943E-3
1.073500E-7	6.128934E-3
1.074000E-7	6.144350E-3
1.074500E-7	6.144350E-3
1.075000E-7	6.120369E-3
1.075500E-7	6.080971E-3
1.076000E-7	5.997037E-3
1.076500E-7	5.925093E-3
1.077000E-7	5.853149E-3
1.077500E-7	5.769214E-3
1.078000E-7	5.668150E-3
1.078500E-7	5.596206E-3
1.079000E-7	5.529401E-3
1.079500E-7	5.507133E-3
1.080000E-7	5.460883E-3
1.080500E-7	5.466022E-3
1.081000E-7	5.471161E-3
1.081500E-7	5.421485E-3
1.082000E-7	5.363245E-3
1.082500E-7	5.332412E-3
1.083000E-7	5.294727E-3
1.083500E-7	5.233061E-3
1.084000E-7	5.171395E-3
1.084500E-7	5.130284E-3
1.085000E-7	5.099451E-3
1.085500E-7	5.077182E-3
1.086000E-7	5.080608E-3
1.086500E-7	5.135423E-3
1.087000E-7	5.167969E-3
1.087500E-7	5.202228E-3
1.088000E-7	5.253616E-3
1.088500E-7	5.272459E-3
1.089000E-7	5.289588E-3
1.089500E-7	5.323847E-3
1.090000E-7	5.358106E-3
1.090500E-7	5.356393E-3
1.091000E-7	5.373523E-3
1.091500E-7	5.375236E-3
1.092000E-7	5.354680E-3
1.092500E-7	5.346116E-3
1.093000E-7	5.327273E-3
1.093500E-7	5.311857E-3
1.094000E-7	5.281024E-3
1.094500E-7	5.279311E-3
1.095000E-7	5.267320E-3
1.095500E-7	5.234774E-3
1.096000E-7	5.214218E-3
1.096500E-7	5.179959E-3
1.097000E-7	5.131997E-3
1.097500E-7	5.082321E-3
1.098000E-7	5.056627E-3
1.098500E-7	5.032646E-3
1.099000E-7	5.018942E-3
1.099500E-7	4.994961E-3
1.100000E-7	4.928156E-3
1.100500E-7	4.880193E-3
1.101000E-7	4.857925E-3
1.101500E-7	4.871628E-3
1.102000E-7	4.890471E-3
1.102500E-7	4.919591E-3
1.103000E-7	4.977831E-3
1.103500E-7	5.044636E-3
1.104000E-7	5.101164E-3
1.104500E-7	5.233061E-3
1.105000E-7	5.293014E-3
1.105500E-7	5.375236E-3
1.106000E-7	5.436902E-3
1.106500E-7	5.493429E-3
1.107000E-7	5.537966E-3
1.107500E-7	5.561947E-3
1.108000E-7	5.555096E-3
1.108500E-7	5.513985E-3
1.109000E-7	5.478013E-3
1.109500E-7	5.424911E-3
1.110000E-7	5.364958E-3
1.110500E-7	5.325560E-3
1.111000E-7	5.282736E-3
1.111500E-7	5.246765E-3
1.112000E-7	5.215931E-3
1.112500E-7	5.203941E-3
1.113000E-7	5.174821E-3
1.113500E-7	5.121719E-3
1.114000E-7	5.077182E-3
1.114500E-7	5.037785E-3
1.115000E-7	5.005239E-3
1.115500E-7	4.972693E-3
1.116000E-7	4.960702E-3
1.116500E-7	4.962415E-3
1.117000E-7	4.976118E-3
1.117500E-7	5.018942E-3
1.118000E-7	5.068618E-3
1.118500E-7	5.167969E-3
1.119000E-7	5.274172E-3
1.119500E-7	5.382088E-3
1.120000E-7	5.488290E-3
1.120500E-7	5.563660E-3
1.121000E-7	5.601345E-3
1.121500E-7	5.649308E-3
1.122000E-7	5.697270E-3
1.122500E-7	5.728103E-3
1.123000E-7	5.736668E-3
1.123500E-7	5.724678E-3
1.124000E-7	5.709261E-3
1.124500E-7	5.685280E-3
1.125000E-7	5.640743E-3
1.125500E-7	5.579077E-3
1.126000E-7	5.532827E-3
1.126500E-7	5.452319E-3
1.127000E-7	5.383801E-3
1.127500E-7	5.284449E-3
1.128000E-7	5.202228E-3
1.128500E-7	5.097738E-3
1.129000E-7	4.976118E-3
1.129500E-7	4.875054E-3
1.130000E-7	4.828805E-3
1.130500E-7	4.815101E-3
1.131000E-7	4.832231E-3
1.131500E-7	4.851073E-3
1.132000E-7	4.857925E-3
1.132500E-7	4.899036E-3
1.133000E-7	4.948711E-3
1.133500E-7	5.003526E-3
1.134000E-7	5.042923E-3
1.134500E-7	5.087460E-3
1.135000E-7	5.111441E-3
1.135500E-7	5.111441E-3
1.136000E-7	5.053201E-3
1.136500E-7	4.998387E-3
1.137000E-7	4.958989E-3
1.137500E-7	4.933295E-3
1.138000E-7	4.897323E-3
1.138500E-7	4.869916E-3
1.139000E-7	4.871628E-3
1.139500E-7	4.916165E-3
1.140000E-7	4.981257E-3
1.140500E-7	5.044636E-3
1.141000E-7	5.101164E-3
1.141500E-7	5.135423E-3
1.142000E-7	5.135423E-3
1.142500E-7	5.145700E-3
1.143000E-7	5.173108E-3
1.143500E-7	5.167969E-3
1.144000E-7	5.155978E-3
1.144500E-7	5.155978E-3
1.145000E-7	5.159404E-3
1.145500E-7	5.157691E-3
1.146000E-7	5.154265E-3
1.146500E-7	5.188524E-3
1.147000E-7	5.243339E-3
1.147500E-7	5.340977E-3
1.148000E-7	5.424911E-3
1.148500E-7	5.510559E-3
1.149000E-7	5.603058E-3
1.149500E-7	5.683567E-3
1.150000E-7	5.726391E-3
1.150500E-7	5.710974E-3
1.151000E-7	5.661298E-3
1.151500E-7	5.623614E-3
1.152000E-7	5.536253E-3
1.152500E-7	5.455744E-3
1.153000E-7	5.354680E-3
1.153500E-7	5.248477E-3
1.154000E-7	5.135423E-3
1.154500E-7	5.037785E-3
1.155000E-7	4.958989E-3
1.155500E-7	4.912739E-3
1.156000E-7	4.863064E-3
1.156500E-7	4.857925E-3
1.157000E-7	4.854499E-3
1.157500E-7	4.823666E-3
1.158000E-7	4.780842E-3
1.158500E-7	4.755148E-3
1.159000E-7	4.705472E-3
1.159500E-7	4.679778E-3
1.160000E-7	4.643806E-3
1.160500E-7	4.619825E-3
1.161000E-7	4.594131E-3
1.161500E-7	4.595844E-3
1.162000E-7	4.607834E-3
1.162500E-7	4.650658E-3
1.163000E-7	4.710611E-3
1.163500E-7	4.780842E-3
1.164000E-7	4.833944E-3
1.164500E-7	4.875054E-3
1.165000E-7	4.923017E-3
1.165500E-7	4.996674E-3
1.166000E-7	5.020655E-3
1.166500E-7	5.051488E-3
1.167000E-7	5.080608E-3
1.167500E-7	5.099451E-3
1.168000E-7	5.116580E-3
1.168500E-7	5.106303E-3
1.169000E-7	5.106303E-3
1.169500E-7	5.133710E-3
1.170000E-7	5.154265E-3
1.170500E-7	5.186811E-3
1.171000E-7	5.185098E-3
1.171500E-7	5.191950E-3
1.172000E-7	5.183385E-3
1.172500E-7	5.121719E-3
1.173000E-7	5.084034E-3
1.173500E-7	5.053201E-3
1.174000E-7	5.017229E-3
1.174500E-7	4.982970E-3
1.175000E-7	4.912739E-3
1.175500E-7	4.830518E-3
1.176000E-7	4.748296E-3
1.176500E-7	4.715750E-3
1.177000E-7	4.648945E-3
1.177500E-7	4.582140E-3
1.178000E-7	4.522187E-3
1.178500E-7	4.448530E-3
1.179000E-7	4.392002E-3
1.179500E-7	4.321771E-3
1.180000E-7	4.292651E-3
1.180500E-7	4.278948E-3
1.181000E-7	4.287512E-3
1.181500E-7	4.320059E-3
1.182000E-7	4.354318E-3
1.182500E-7	4.415984E-3
1.183000E-7	4.499918E-3
1.183500E-7	4.599269E-3
1.184000E-7	4.698621E-3
1.184500E-7	4.806536E-3
1.185000E-7	4.854499E-3
1.185500E-7	4.893897E-3
1.186000E-7	4.924730E-3
1.186500E-7	4.933295E-3
1.187000E-7	4.982970E-3
1.187500E-7	4.969267E-3
1.188000E-7	4.931582E-3
1.188500E-7	4.905887E-3
1.189000E-7	4.890471E-3
1.189500E-7	4.856212E-3
1.190000E-7	4.791120E-3
1.190500E-7	4.755148E-3
1.191000E-7	4.679778E-3
1.191500E-7	4.585566E-3
1.192000E-7	4.534177E-3
1.192500E-7	4.486215E-3
1.193000E-7	4.450243E-3
1.193500E-7	4.472511E-3
1.194000E-7	4.482789E-3
1.194500E-7	4.517048E-3
1.195000E-7	4.606121E-3
1.195500E-7	4.681491E-3
1.196000E-7	4.727741E-3
1.196500E-7	4.775703E-3
1.197000E-7	4.792833E-3
1.197500E-7	4.806536E-3
1.198000E-7	4.818527E-3
1.198500E-7	4.801398E-3
1.199000E-7	4.762000E-3
1.199500E-7	4.702046E-3
1.200000E-7	4.638667E-3
1.200500E-7	4.571862E-3
1.201000E-7	4.494779E-3
1.201500E-7	4.431400E-3
1.202000E-7	4.388577E-3
1.202500E-7	4.388577E-3
1.203000E-7	4.381725E-3
1.203500E-7	4.397141E-3
1.204000E-7	4.415984E-3
1.204500E-7	4.434826E-3
1.205000E-7	4.475937E-3
1.205500E-7	4.479363E-3
1.206000E-7	4.481076E-3
1.206500E-7	4.484502E-3
1.207000E-7	4.494779E-3
1.207500E-7	4.499918E-3
1.208000E-7	4.493067E-3
1.208500E-7	4.496492E-3
1.209000E-7	4.511909E-3
1.209500E-7	4.522187E-3
1.210000E-7	4.561585E-3
1.210500E-7	4.565010E-3
1.211000E-7	4.583853E-3
1.211500E-7	4.568436E-3
1.212000E-7	4.539316E-3
1.212500E-7	4.551307E-3
1.213000E-7	4.549594E-3
1.213500E-7	4.510196E-3
1.214000E-7	4.455382E-3
1.214500E-7	4.371447E-3
1.215000E-7	4.318346E-3
1.215500E-7	4.277235E-3
1.216000E-7	4.332049E-3
1.216500E-7	4.359456E-3
1.217000E-7	4.436539E-3
1.217500E-7	4.541029E-3
1.218000E-7	4.652371E-3
1.218500E-7	4.789407E-3
1.219000E-7	4.948711E-3
1.219500E-7	5.087460E-3
1.220000E-7	5.173108E-3
1.220500E-7	5.255329E-3
1.221000E-7	5.330699E-3
1.221500E-7	5.359819E-3
1.222000E-7	5.352967E-3
1.222500E-7	5.310144E-3
1.223000E-7	5.202228E-3
1.223500E-7	5.092599E-3
1.224000E-7	4.988109E-3
1.224500E-7	4.828805E-3
1.225000E-7	4.667787E-3
1.225500E-7	4.532464E-3
1.226000E-7	4.398854E-3
1.226500E-7	4.268670E-3
1.227000E-7	4.236124E-3
1.227500E-7	4.207004E-3
1.228000E-7	4.196726E-3
1.228500E-7	4.218994E-3
1.229000E-7	4.278948E-3
1.229500E-7	4.364595E-3
1.230000E-7	4.433113E-3
1.230500E-7	4.494779E-3
1.231000E-7	4.565010E-3
1.231500E-7	4.599269E-3
1.232000E-7	4.590705E-3
1.232500E-7	4.558159E-3
1.233000E-7	4.535890E-3
1.233500E-7	4.499918E-3
1.234000E-7	4.498205E-3
1.234500E-7	4.525613E-3
1.235000E-7	4.537603E-3
1.235500E-7	4.561585E-3
1.236000E-7	4.609547E-3
1.236500E-7	4.707185E-3
1.237000E-7	4.821953E-3
1.237500E-7	4.928156E-3
1.238000E-7	4.989822E-3
1.238500E-7	4.981257E-3
1.239000E-7	4.940146E-3
1.239500E-7	4.827092E-3
1.240000E-7	4.679778E-3
1.240500E-7	4.489641E-3
1.241000E-7	4.296077E-3
1.241500E-7	4.097375E-3
1.242000E-7	3.881543E-3
1.242500E-7	3.674276E-3
1.243000E-7	3.549231E-3
1.243500E-7	3.484139E-3
1.244000E-7	3.497843E-3
1.244500E-7	3.552657E-3
1.245000E-7	3.624601E-3
1.245500E-7	3.746220E-3
1.246000E-7	3.915802E-3
1.246500E-7	4.057977E-3
1.247000E-7	4.234411E-3
1.247500E-7	4.364595E-3
1.248000E-7	4.487928E-3
1.248500E-7	4.568436E-3
1.249000E-7	4.607834E-3
1.249500E-7	4.590705E-3
1.250000E-7	4.551307E-3
1.250500E-7	4.503344E-3
1.251000E-7	4.457095E-3
1.251500E-7	4.373160E-3
1.252000E-7	4.294364E-3
1.252500E-7	4.227559E-3
1.253000E-7	4.148764E-3
1.253500E-7	4.073394E-3
1.254000E-7	4.044274E-3
1.254500E-7	4.003163E-3
1.255000E-7	3.984320E-3
1.255500E-7	4.003163E-3
1.256000E-7	4.042561E-3
1.256500E-7	4.093949E-3
1.257000E-7	4.174458E-3
1.257500E-7	4.249828E-3
1.258000E-7	4.326910E-3
1.258500E-7	4.414271E-3
1.259000E-7	4.481076E-3
1.259500E-7	4.513622E-3
1.260000E-7	4.568436E-3
1.260500E-7	4.583853E-3
1.261000E-7	4.534177E-3
1.261500E-7	4.513622E-3
1.262000E-7	4.494779E-3
1.262500E-7	4.424549E-3
1.263000E-7	4.397141E-3
1.263500E-7	4.338901E-3
1.264000E-7	4.253253E-3
1.264500E-7	4.174458E-3
1.265000E-7	4.159041E-3
1.265500E-7	4.121356E-3
1.266000E-7	4.117930E-3
1.266500E-7	4.093949E-3
1.267000E-7	4.140199E-3
1.267500E-7	4.203578E-3
1.268000E-7	4.215569E-3
1.268500E-7	4.270383E-3
1.269000E-7	4.290938E-3
1.269500E-7	4.325197E-3
1.270000E-7	4.344040E-3
1.270500E-7	4.328623E-3
1.271000E-7	4.287512E-3
1.271500E-7	4.232698E-3
1.272000E-7	4.141912E-3
1.272500E-7	4.080246E-3
1.273000E-7	4.045987E-3
1.273500E-7	4.008302E-3
1.274000E-7	3.970617E-3
1.274500E-7	3.975756E-3
1.275000E-7	3.967191E-3
1.275500E-7	4.003163E-3
1.276000E-7	3.999737E-3
1.276500E-7	3.991172E-3
1.277000E-7	4.015153E-3
1.277500E-7	4.064829E-3
1.278000E-7	4.112792E-3
1.278500E-7	4.150476E-3
1.279000E-7	4.188161E-3
1.279500E-7	4.236124E-3
1.280000E-7	4.244689E-3
1.280500E-7	4.253253E-3
1.281000E-7	4.287512E-3
1.281500E-7	4.275522E-3
1.282000E-7	4.297790E-3
1.282500E-7	4.289225E-3
1.283000E-7	4.278948E-3
1.283500E-7	4.268670E-3
1.284000E-7	4.218994E-3
1.284500E-7	4.213856E-3
1.285000E-7	4.148764E-3
1.285500E-7	4.076820E-3
1.286000E-7	4.023718E-3
1.286500E-7	3.987746E-3
1.287000E-7	3.934645E-3
1.287500E-7	3.898673E-3
1.288000E-7	3.898673E-3
1.288500E-7	3.902099E-3
1.289000E-7	3.912376E-3
1.289500E-7	3.922654E-3
1.290000E-7	3.974043E-3
1.290500E-7	4.044274E-3
1.291000E-7	4.076820E-3
1.291500E-7	4.097375E-3
1.292000E-7	4.075107E-3
1.292500E-7	4.051125E-3
1.293000E-7	3.987746E-3
1.293500E-7	3.910663E-3
1.294000E-7	3.883256E-3
1.294500E-7	3.866127E-3
1.295000E-7	3.857562E-3
1.295500E-7	3.842145E-3
1.296000E-7	3.860988E-3
1.296500E-7	3.888395E-3
1.297000E-7	3.938071E-3
1.297500E-7	3.986033E-3
1.298000E-7	4.066542E-3
1.298500E-7	4.117930E-3
1.299000E-7	4.141912E-3
1.299500E-7	4.141912E-3
1.300000E-7	4.104227E-3
1.300500E-7	4.057977E-3
1.301000E-7	3.974043E-3
1.301500E-7	3.931219E-3
1.302000E-7	3.888395E-3
1.302500E-7	3.852423E-3
1.303000E-7	3.830155E-3
1.303500E-7	3.789044E-3
1.304000E-7	3.761637E-3
1.304500E-7	3.730804E-3
1.305000E-7	3.766776E-3
1.305500E-7	3.802748E-3
1.306000E-7	3.886682E-3
1.306500E-7	3.967191E-3
1.307000E-7	4.030570E-3
1.307500E-7	4.028857E-3
1.308000E-7	4.006589E-3
1.308500E-7	3.974043E-3
1.309000E-7	3.915802E-3
1.309500E-7	3.842145E-3
1.310000E-7	3.725665E-3
1.310500E-7	3.667425E-3
1.311000E-7	3.640017E-3
1.311500E-7	3.619462E-3
1.312000E-7	3.634879E-3
1.312500E-7	3.686267E-3
1.313000E-7	3.790757E-3
1.313500E-7	3.917515E-3
1.314000E-7	4.039135E-3
1.314500E-7	4.121356E-3
1.315000E-7	4.201865E-3
1.315500E-7	4.273809E-3
1.316000E-7	4.290938E-3
1.316500E-7	4.282374E-3
1.317000E-7	4.254966E-3
1.317500E-7	4.203578E-3
1.318000E-7	4.131634E-3
1.318500E-7	4.039135E-3
1.319000E-7	3.915802E-3
1.319500E-7	3.811312E-3
1.320000E-7	3.727378E-3
1.320500E-7	3.679415E-3
1.321000E-7	3.634879E-3
1.321500E-7	3.655434E-3
1.322000E-7	3.653721E-3
1.322500E-7	3.662286E-3
1.323000E-7	3.687980E-3
1.323500E-7	3.699971E-3
1.324000E-7	3.693119E-3
1.324500E-7	3.696545E-3
1.325000E-7	3.703397E-3
1.325500E-7	3.727378E-3
1.326000E-7	3.766776E-3
1.326500E-7	3.795896E-3
1.327000E-7	3.871266E-3
1.327500E-7	3.908951E-3
1.328000E-7	3.960339E-3
1.328500E-7	4.042561E-3
1.329000E-7	4.109366E-3
1.329500E-7	4.128208E-3
1.330000E-7	4.124782E-3
1.330500E-7	4.092236E-3
1.331000E-7	4.042561E-3
1.331500E-7	3.968904E-3
1.332000E-7	3.860988E-3
1.332500E-7	3.727378E-3
1.333000E-7	3.634879E-3
1.333500E-7	3.566361E-3
1.334000E-7	3.484139E-3
1.334500E-7	3.434463E-3
1.335000E-7	3.413908E-3
1.335500E-7	3.372797E-3
1.336000E-7	3.372797E-3
1.336500E-7	3.372797E-3
1.337000E-7	3.400204E-3
1.337500E-7	3.456732E-3
1.338000E-7	3.528676E-3
1.338500E-7	3.621175E-3
1.339000E-7	3.727378E-3
1.339500E-7	3.855849E-3
1.340000E-7	3.917515E-3
1.340500E-7	3.970617E-3
1.341000E-7	4.040848E-3
1.341500E-7	4.095662E-3
1.342000E-7	4.092236E-3
1.342500E-7	4.105940E-3
1.343000E-7	4.088810E-3
1.343500E-7	4.057977E-3
1.344000E-7	4.032283E-3
1.344500E-7	4.027144E-3
1.345000E-7	3.996311E-3
1.345500E-7	3.975756E-3
1.346000E-7	3.968904E-3
1.346500E-7	3.953487E-3
1.347000E-7	3.922654E-3
1.347500E-7	3.879830E-3
1.348000E-7	3.804461E-3
1.348500E-7	3.737656E-3
1.349000E-7	3.663999E-3
1.349500E-7	3.638304E-3
1.350000E-7	3.643443E-3
1.350500E-7	3.662286E-3
1.351000E-7	3.705109E-3
1.351500E-7	3.734230E-3
1.352000E-7	3.765063E-3
1.352500E-7	3.847284E-3
1.353000E-7	3.936358E-3
1.353500E-7	4.011728E-3
1.354000E-7	4.090523E-3
1.354500E-7	4.167606E-3
1.355000E-7	4.164180E-3
1.355500E-7	4.152189E-3
1.356000E-7	4.075107E-3
1.356500E-7	3.986033E-3
1.357000E-7	3.917515E-3
1.357500E-7	3.807886E-3
1.358000E-7	3.675989E-3
1.358500E-7	3.535527E-3
1.359000E-7	3.439602E-3
1.359500E-7	3.307705E-3
1.360000E-7	3.239187E-3
1.360500E-7	3.153540E-3
1.361000E-7	3.064466E-3
1.361500E-7	3.055901E-3
1.362000E-7	3.078170E-3
1.362500E-7	3.132984E-3
1.363000E-7	3.218632E-3
1.363500E-7	3.275159E-3
1.364000E-7	3.352242E-3
1.364500E-7	3.419047E-3
1.365000E-7	3.521824E-3
1.365500E-7	3.622888E-3
1.366000E-7	3.710248E-3
1.366500E-7	3.782192E-3
1.367000E-7	3.807886E-3
1.367500E-7	3.777053E-3
1.368000E-7	3.734230E-3
1.368500E-7	3.648582E-3
1.369000E-7	3.530389E-3
1.369500E-7	3.443028E-3
1.370000E-7	3.369371E-3
1.370500E-7	3.299140E-3
1.371000E-7	3.247752E-3
1.371500E-7	3.228909E-3
1.372000E-7	3.225483E-3
1.372500E-7	3.239187E-3
1.373000E-7	3.288863E-3
1.373500E-7	3.304279E-3
1.374000E-7	3.336825E-3
1.374500E-7	3.359094E-3
1.375000E-7	3.365945E-3
1.375500E-7	3.352242E-3
1.376000E-7	3.305992E-3
1.376500E-7	3.264881E-3
1.377000E-7	3.252891E-3
1.377500E-7	3.220345E-3
1.378000E-7	3.199789E-3
1.378500E-7	3.201502E-3
1.379000E-7	3.218632E-3
1.379500E-7	3.268307E-3
1.380000E-7	3.357381E-3
1.380500E-7	3.460158E-3
1.381000E-7	3.573212E-3
1.381500E-7	3.682841E-3
1.382000E-7	3.789044E-3
1.382500E-7	3.881543E-3
1.383000E-7	3.926080E-3
1.383500E-7	3.917515E-3
1.384000E-7	3.879830E-3
1.384500E-7	3.773627E-3
1.385000E-7	3.669138E-3
1.385500E-7	3.568073E-3
1.386000E-7	3.436176E-3
1.386500E-7	3.297427E-3
1.387000E-7	3.199789E-3
1.387500E-7	3.126132E-3
1.388000E-7	3.019929E-3
1.388500E-7	2.929143E-3
1.389000E-7	2.882893E-3
1.389500E-7	2.884606E-3
1.390000E-7	2.870903E-3
1.390500E-7	2.884606E-3
1.391000E-7	2.891458E-3
1.391500E-7	2.912014E-3
1.392000E-7	2.941134E-3
1.392500E-7	3.004513E-3
1.393000E-7	3.061040E-3
1.393500E-7	3.127845E-3
1.394000E-7	3.150114E-3
1.394500E-7	3.179234E-3
1.395000E-7	3.204928E-3
1.395500E-7	3.184373E-3
1.396000E-7	3.167243E-3
1.396500E-7	3.134697E-3
1.397000E-7	3.115855E-3
1.397500E-7	3.124419E-3
1.398000E-7	3.129558E-3
1.398500E-7	3.180947E-3
1.399000E-7	3.259742E-3
1.399500E-7	3.353955E-3
1.400000E-7	3.463584E-3
1.400500E-7	3.559509E-3
1.401000E-7	3.703397E-3
1.401500E-7	3.804461E-3
1.402000E-7	3.888395E-3
1.402500E-7	3.891821E-3
1.403000E-7	3.886682E-3
1.403500E-7	3.823303E-3
1.404000E-7	3.744507E-3
1.404500E-7	3.607471E-3
1.405000E-7	3.472148E-3
1.405500E-7	3.393353E-3
1.406000E-7	3.299140E-3
1.406500E-7	3.259742E-3
1.407000E-7	3.285437E-3
1.407500E-7	3.323122E-3
1.408000E-7	3.422473E-3
1.408500E-7	3.532102E-3
1.409000E-7	3.653721E-3
1.409500E-7	3.766776E-3
1.410000E-7	3.874692E-3
1.410500E-7	3.917515E-3
1.411000E-7	3.955200E-3
1.411500E-7	3.929506E-3
1.412000E-7	3.898673E-3
1.412500E-7	3.821590E-3
1.413000E-7	3.718813E-3
1.413500E-7	3.621175E-3
1.414000E-7	3.502981E-3
1.414500E-7	3.439602E-3
1.415000E-7	3.395066E-3
1.415500E-7	3.355668E-3
1.416000E-7	3.307705E-3
1.416500E-7	3.290576E-3
1.417000E-7	3.287150E-3
1.417500E-7	3.309418E-3
1.418000E-7	3.323122E-3
1.418500E-7	3.347103E-3
1.419000E-7	3.393353E-3
1.419500E-7	3.436176E-3
1.420000E-7	3.502981E-3
1.420500E-7	3.568073E-3
1.421000E-7	3.638304E-3
1.421500E-7	3.708535E-3
1.422000E-7	3.770202E-3
1.422500E-7	3.833581E-3
1.423000E-7	3.860988E-3
1.423500E-7	3.857562E-3
1.424000E-7	3.814738E-3
1.424500E-7	3.770202E-3
1.425000E-7	3.718813E-3
1.425500E-7	3.674276E-3
1.426000E-7	3.645156E-3
1.426500E-7	3.616036E-3
1.427000E-7	3.583490E-3
1.427500E-7	3.550944E-3
1.428000E-7	3.540666E-3
1.428500E-7	3.542379E-3
1.429000E-7	3.590342E-3
1.429500E-7	3.626314E-3
1.430000E-7	3.657147E-3
1.430500E-7	3.646869E-3
1.431000E-7	3.600620E-3
1.431500E-7	3.545805E-3
1.432000E-7	3.455019E-3
1.432500E-7	3.307705E-3
1.433000E-7	3.191224E-3
1.433500E-7	3.109003E-3
1.434000E-7	3.057614E-3
1.434500E-7	3.028494E-3
1.435000E-7	3.040485E-3
1.435500E-7	3.081596E-3
1.436000E-7	3.177521E-3
1.436500E-7	3.292289E-3
1.437000E-7	3.422473E-3
1.437500E-7	3.532102E-3
1.438000E-7	3.621175E-3
1.438500E-7	3.687980E-3
1.439000E-7	3.718813E-3
1.439500E-7	3.689693E-3
1.440000E-7	3.616036E-3
1.440500E-7	3.492704E-3
1.441000E-7	3.393353E-3
1.441500E-7	3.258030E-3
1.442000E-7	3.103864E-3
1.442500E-7	3.004513E-3
1.443000E-7	2.947986E-3
1.443500E-7	2.912014E-3
1.444000E-7	2.912014E-3
1.444500E-7	2.961689E-3
1.445000E-7	3.062753E-3
1.445500E-7	3.222058E-3
1.446000E-7	3.400204E-3
1.446500E-7	3.580064E-3
1.447000E-7	3.758211E-3
1.447500E-7	3.931219E-3
1.448000E-7	4.071681E-3
1.448500E-7	4.126495E-3
1.449000E-7	4.171032E-3
1.449500E-7	4.201865E-3
1.450000E-7	4.159041E-3
1.450500E-7	4.112792E-3
1.451000E-7	4.042561E-3
1.451500E-7	3.917515E-3
1.452000E-7	3.814738E-3
1.452500E-7	3.754785E-3
1.453000E-7	3.711961E-3
1.453500E-7	3.725665E-3
1.454000E-7	3.751359E-3
1.454500E-7	3.794183E-3
1.455000E-7	3.838720E-3
1.455500E-7	3.876404E-3
1.456000E-7	3.898673E-3
1.456500E-7	3.900386E-3
1.457000E-7	3.850710E-3
1.457500E-7	3.758211E-3
1.458000E-7	3.648582E-3
1.458500E-7	3.559509E-3
1.459000E-7	3.480713E-3
1.459500E-7	3.434463E-3
1.460000E-7	3.379649E-3
1.460500E-7	3.350529E-3
1.461000E-7	3.299140E-3
1.461500E-7	3.275159E-3
1.462000E-7	3.287150E-3
1.462500E-7	3.305992E-3
1.463000E-7	3.326548E-3
1.463500E-7	3.345390E-3
1.464000E-7	3.343677E-3
1.464500E-7	3.379649E-3
1.465000E-7	3.357381E-3
1.465500E-7	3.331686E-3
1.466000E-7	3.326548E-3
1.466500E-7	3.288863E-3
1.467000E-7	3.247752E-3
1.467500E-7	3.216919E-3
1.468000E-7	3.215206E-3
1.468500E-7	3.199789E-3
1.469000E-7	3.180947E-3
1.469500E-7	3.144975E-3
1.470000E-7	3.100438E-3
1.470500E-7	3.109003E-3
1.471000E-7	3.131271E-3
1.471500E-7	3.148401E-3
1.472000E-7	3.143262E-3
1.472500E-7	3.144975E-3
1.473000E-7	3.155253E-3
1.473500E-7	3.179234E-3
1.474000E-7	3.211780E-3
1.474500E-7	3.256317E-3
1.475000E-7	3.317983E-3
1.475500E-7	3.353955E-3
1.476000E-7	3.417334E-3
1.476500E-7	3.472148E-3
1.477000E-7	3.499555E-3
1.477500E-7	3.496130E-3
1.478000E-7	3.489278E-3
1.478500E-7	3.453306E-3
1.479000E-7	3.420760E-3
1.479500E-7	3.336825E-3
1.480000E-7	3.222058E-3
1.480500E-7	3.090160E-3
1.481000E-7	2.953124E-3
1.481500E-7	2.816088E-3
1.482000E-7	2.651645E-3
1.482500E-7	2.492341E-3
1.483000E-7	2.380999E-3
1.483500E-7	2.324472E-3
1.484000E-7	2.295352E-3
1.484500E-7	2.302203E-3
1.485000E-7	2.389564E-3
1.485500E-7	2.509470E-3
1.486000E-7	2.679052E-3
1.486500E-7	2.893171E-3
1.487000E-7	3.085022E-3
1.487500E-7	3.288863E-3
1.488000E-7	3.465296E-3
1.488500E-7	3.564648E-3
1.489000E-7	3.583490E-3
1.489500E-7	3.554370E-3
1.490000E-7	3.444741E-3
1.490500E-7	3.316270E-3
1.491000E-7	3.168956E-3
1.491500E-7	3.025068E-3
1.492000E-7	2.906875E-3
1.492500E-7	2.822940E-3
1.493000E-7	2.780116E-3
1.493500E-7	2.797246E-3
1.494000E-7	2.876042E-3
1.494500E-7	3.006226E-3
1.495000E-7	3.156965E-3
1.495500E-7	3.307705E-3
1.496000E-7	3.407056E-3
1.496500E-7	3.477287E-3
1.497000E-7	3.487565E-3
1.497500E-7	3.443028E-3
1.498000E-7	3.355668E-3
1.498500E-7	3.275159E-3
1.499000E-7	3.146688E-3
1.499500E-7	3.054188E-3
1.500000E-7	2.903449E-3
1.500500E-7	2.800672E-3
1.501000E-7	2.725302E-3
1.501500E-7	2.679052E-3
1.502000E-7	2.660210E-3
1.502500E-7	2.677339E-3
1.503000E-7	2.739006E-3
1.503500E-7	2.774978E-3
1.504000E-7	2.858912E-3
1.504500E-7	2.905162E-3
1.505000E-7	2.941134E-3
1.505500E-7	2.980532E-3
1.506000E-7	3.018217E-3
1.506500E-7	3.018217E-3
1.507000E-7	3.035346E-3
1.507500E-7	3.040485E-3
1.508000E-7	2.992522E-3
1.508500E-7	2.941134E-3
1.509000E-7	2.918865E-3
1.509500E-7	2.935995E-3
1.510000E-7	2.961689E-3
1.510500E-7	3.006226E-3
1.511000E-7	3.067892E-3
1.511500E-7	3.127845E-3
1.512000E-7	3.172382E-3
1.512500E-7	3.228909E-3
1.513000E-7	3.319696E-3
1.513500E-7	3.362519E-3
1.514000E-7	3.398491E-3
1.514500E-7	3.420760E-3
1.515000E-7	3.386501E-3
1.515500E-7	3.312844E-3
1.516000E-7	3.228909E-3
1.516500E-7	3.146688E-3
1.517000E-7	3.076457E-3
1.517500E-7	3.028494E-3
1.518000E-7	2.997661E-3
1.518500E-7	2.995948E-3
1.519000E-7	3.043911E-3
1.519500E-7	3.088447E-3
1.520000E-7	3.129558E-3
1.520500E-7	3.163817E-3
1.521000E-7	3.235761E-3
1.521500E-7	3.331686E-3
1.522000E-7	3.376223E-3
1.522500E-7	3.407056E-3
1.523000E-7	3.388214E-3
1.523500E-7	3.367658E-3
1.524000E-7	3.300853E-3
1.524500E-7	3.270020E-3
1.525000E-7	3.290576E-3
1.525500E-7	3.316270E-3
1.526000E-7	3.360807E-3
1.526500E-7	3.424186E-3
1.527000E-7	3.482426E-3
1.527500E-7	3.545805E-3
1.528000E-7	3.616036E-3
1.528500E-7	3.638304E-3
1.529000E-7	3.710248E-3
1.529500E-7	3.777053E-3
1.530000E-7	3.838720E-3
1.530500E-7	3.850710E-3
1.531000E-7	3.855849E-3
1.531500E-7	3.804461E-3
1.532000E-7	3.739368E-3
1.532500E-7	3.684554E-3
1.533000E-7	3.646869E-3
1.533500E-7	3.605758E-3
1.534000E-7	3.556083E-3
1.534500E-7	3.489278E-3
1.535000E-7	3.439602E-3
1.535500E-7	3.347103E-3
1.536000E-7	3.244326E-3
1.536500E-7	3.143262E-3
1.537000E-7	3.054188E-3
1.537500E-7	2.982245E-3
1.538000E-7	2.900023E-3
1.538500E-7	2.828079E-3
1.539000E-7	2.793820E-3
1.539500E-7	2.798959E-3
1.540000E-7	2.824653E-3
1.540500E-7	2.850347E-3
1.541000E-7	2.912014E-3
1.541500E-7	2.970254E-3
1.542000E-7	3.026781E-3
1.542500E-7	3.115855E-3
1.543000E-7	3.180947E-3
1.543500E-7	3.223771E-3
1.544000E-7	3.211780E-3
1.544500E-7	3.222058E-3
1.545000E-7	3.213493E-3
1.545500E-7	3.239187E-3
1.546000E-7	3.268307E-3
1.546500E-7	3.270020E-3
1.547000E-7	3.287150E-3
1.547500E-7	3.266594E-3
1.548000E-7	3.251178E-3
1.548500E-7	3.258030E-3
1.549000E-7	3.256317E-3
1.549500E-7	3.275159E-3
1.550000E-7	3.288863E-3
1.550500E-7	3.338538E-3
1.551000E-7	3.413908E-3
1.551500E-7	3.501268E-3
1.552000E-7	3.571499E-3
1.552500E-7	3.658860E-3
1.553000E-7	3.720526E-3
1.553500E-7	3.775340E-3
1.554000E-7	3.826729E-3
1.554500E-7	3.860988E-3
1.555000E-7	3.855849E-3
1.555500E-7	3.842145E-3
1.556000E-7	3.771915E-3
1.556500E-7	3.672563E-3
1.557000E-7	3.583490E-3
1.557500E-7	3.434463E-3
1.558000E-7	3.323122E-3
1.558500E-7	3.211780E-3
1.559000E-7	3.079883E-3
1.559500E-7	3.026781E-3
1.560000E-7	3.006226E-3
1.560500E-7	3.042198E-3
1.561000E-7	3.120994E-3
1.561500E-7	3.235761E-3
1.562000E-7	3.371084E-3
1.562500E-7	3.504694E-3
1.563000E-7	3.684554E-3
1.563500E-7	3.847284E-3
1.564000E-7	4.015153E-3
1.564500E-7	4.155615E-3
1.565000E-7	4.244689E-3
1.565500E-7	4.270383E-3
1.566000E-7	4.287512E-3
1.566500E-7	4.266957E-3
1.567000E-7	4.272096E-3
1.567500E-7	4.227559E-3
1.568000E-7	4.160754E-3
1.568500E-7	4.049412E-3
1.569000E-7	3.926080E-3
1.569500E-7	3.802748E-3
1.570000E-7	3.658860E-3
1.570500E-7	3.526963E-3
1.571000E-7	3.396778E-3
1.571500E-7	3.264881E-3
1.572000E-7	3.122706E-3
1.572500E-7	3.011365E-3
1.573000E-7	2.893171E-3
1.573500E-7	2.821227E-3
1.574000E-7	2.759561E-3
1.574500E-7	2.749283E-3
1.575000E-7	2.761274E-3
1.575500E-7	2.766413E-3
1.576000E-7	2.795533E-3
1.576500E-7	2.860625E-3
1.577000E-7	2.958263E-3
1.577500E-7	3.045624E-3
1.578000E-7	3.165530E-3
1.578500E-7	3.268307E-3
1.579000E-7	3.381362E-3
1.579500E-7	3.506407E-3
1.580000E-7	3.595481E-3
1.580500E-7	3.687980E-3
1.581000E-7	3.741081E-3
1.581500E-7	3.792470E-3
1.582000E-7	3.795896E-3
1.582500E-7	3.749646E-3
1.583000E-7	3.689693E-3
1.583500E-7	3.586916E-3
1.584000E-7	3.482426E-3
1.584500E-7	3.343677E-3
1.585000E-7	3.225483E-3
1.585500E-7	3.097012E-3
1.586000E-7	3.050763E-3
1.586500E-7	3.018217E-3
1.587000E-7	3.002800E-3
1.587500E-7	3.026781E-3
1.588000E-7	3.069605E-3
1.588500E-7	3.090160E-3
1.589000E-7	3.126132E-3
1.589500E-7	3.155253E-3
1.590000E-7	3.134697E-3
1.590500E-7	3.129558E-3
1.591000E-7	3.112429E-3
1.591500E-7	3.066179E-3
1.592000E-7	3.061040E-3
1.592500E-7	3.076457E-3
1.593000E-7	3.117568E-3
1.593500E-7	3.144975E-3
1.594000E-7	3.163817E-3
1.594500E-7	3.155253E-3
1.595000E-7	3.117568E-3
1.595500E-7	3.074744E-3
1.596000E-7	3.018217E-3
1.596500E-7	2.947986E-3
1.597000E-7	2.879468E-3
1.597500E-7	2.790394E-3
1.598000E-7	2.701321E-3
1.598500E-7	2.591692E-3
1.599000E-7	2.507757E-3
1.599500E-7	2.458082E-3
1.600000E-7	2.434101E-3
1.600500E-7	2.461508E-3
1.601000E-7	2.555720E-3
1.601500E-7	2.632803E-3
1.602000E-7	2.756135E-3
1.602500E-7	2.864051E-3
1.603000E-7	3.019929E-3
1.603500E-7	3.203215E-3
1.604000E-7	3.338538E-3
1.604500E-7	3.443028E-3
1.605000E-7	3.550944E-3
1.605500E-7	3.574925E-3
1.606000E-7	3.552657E-3
1.606500E-7	3.561222E-3
1.607000E-7	3.538953E-3
1.607500E-7	3.490991E-3
1.608000E-7	3.420760E-3
1.608500E-7	3.345390E-3
1.609000E-7	3.244326E-3
1.609500E-7	3.136410E-3
1.610000E-7	3.045624E-3
1.610500E-7	2.999374E-3
1.611000E-7	2.934282E-3
1.611500E-7	2.893171E-3
1.612000E-7	2.874329E-3
1.612500E-7	2.864051E-3
1.613000E-7	2.877755E-3
1.613500E-7	2.908588E-3
1.614000E-7	2.908588E-3
1.614500E-7	2.891458E-3
1.615000E-7	2.893171E-3
1.615500E-7	2.865764E-3
1.616000E-7	2.831505E-3
1.616500E-7	2.776691E-3
1.617000E-7	2.703034E-3
1.617500E-7	2.634516E-3
1.618000E-7	2.579701E-3
1.618500E-7	2.543729E-3
1.619000E-7	2.535165E-3
1.619500E-7	2.564285E-3
1.620000E-7	2.613960E-3
1.620500E-7	2.687617E-3
1.621000E-7	2.809237E-3
1.621500E-7	2.930856E-3
1.622000E-7	3.014791E-3
1.622500E-7	3.109003E-3
1.623000E-7	3.194650E-3
1.623500E-7	3.216919E-3
1.624000E-7	3.210067E-3
1.624500E-7	3.172382E-3
1.625000E-7	3.158678E-3
1.625500E-7	3.102151E-3
1.626000E-7	3.069605E-3
1.626500E-7	3.097012E-3
1.627000E-7	3.122706E-3
1.627500E-7	3.182660E-3
1.628000E-7	3.223771E-3
1.628500E-7	3.302566E-3
1.629000E-7	3.374510E-3
1.629500E-7	3.419047E-3
1.630000E-7	3.422473E-3
1.630500E-7	3.401917E-3
1.631000E-7	3.355668E-3
1.631500E-7	3.263168E-3
1.632000E-7	3.146688E-3
1.632500E-7	3.040485E-3
1.633000E-7	2.941134E-3
1.633500E-7	2.846922E-3
1.634000E-7	2.828079E-3
1.634500E-7	2.833218E-3
1.635000E-7	2.877755E-3
1.635500E-7	2.977106E-3
1.636000E-7	3.040485E-3
1.636500E-7	3.141549E-3
1.637000E-7	3.208354E-3
1.637500E-7	3.263168E-3
1.638000E-7	3.266594E-3
1.638500E-7	3.263168E-3
1.639000E-7	3.204928E-3
1.639500E-7	3.138123E-3
1.640000E-7	3.037059E-3
1.640500E-7	2.922291E-3
1.641000E-7	2.882893E-3
1.641500E-7	2.828079E-3
1.642000E-7	2.804098E-3
1.642500E-7	2.821227E-3
1.643000E-7	2.841783E-3
1.643500E-7	2.881181E-3
1.644000E-7	2.953124E-3
1.644500E-7	3.028494E-3
1.645000E-7	3.115855E-3
1.645500E-7	3.186086E-3
1.646000E-7	3.237474E-3
1.646500E-7	3.252891E-3
1.647000E-7	3.266594E-3
1.647500E-7	3.271733E-3
1.648000E-7	3.220345E-3
1.648500E-7	3.162104E-3
1.649000E-7	3.120994E-3
1.649500E-7	3.071318E-3
1.650000E-7	2.997661E-3
1.650500E-7	2.941134E-3
1.651000E-7	2.922291E-3
1.651500E-7	2.886319E-3
1.652000E-7	2.900023E-3
1.652500E-7	2.958263E-3
1.653000E-7	3.052476E-3
1.653500E-7	3.139836E-3
1.654000E-7	3.240900E-3
1.654500E-7	3.328260E-3
1.655000E-7	3.449880E-3
1.655500E-7	3.545805E-3
1.656000E-7	3.626314E-3
1.656500E-7	3.669138E-3
1.657000E-7	3.660573E-3
1.657500E-7	3.590342E-3
1.658000E-7	3.479000E-3
1.658500E-7	3.364232E-3
1.659000E-7	3.242613E-3
1.659500E-7	3.110716E-3
1.660000E-7	3.028494E-3
1.660500E-7	2.946273E-3
1.661000E-7	2.900023E-3
1.661500E-7	2.876042E-3
1.662000E-7	2.896597E-3
1.662500E-7	2.961689E-3
1.663000E-7	3.071318E-3
1.663500E-7	3.186086E-3
1.664000E-7	3.294001E-3
1.664500E-7	3.417334E-3
1.665000E-7	3.502981E-3
1.665500E-7	3.549231E-3
1.666000E-7	3.574925E-3
1.666500E-7	3.597194E-3
1.667000E-7	3.645156E-3
1.667500E-7	3.696545E-3
1.668000E-7	3.696545E-3
1.668500E-7	3.715387E-3
1.669000E-7	3.723952E-3
1.669500E-7	3.706822E-3
1.670000E-7	3.682841E-3
1.670500E-7	3.633166E-3
1.671000E-7	3.598907E-3
1.671500E-7	3.562935E-3
1.672000E-7	3.523537E-3
1.672500E-7	3.443028E-3
1.673000E-7	3.384788E-3
1.673500E-7	3.305992E-3
1.674000E-7	3.249465E-3
1.674500E-7	3.258030E-3
1.675000E-7	3.292289E-3
1.675500E-7	3.328260E-3
1.676000E-7	3.383075E-3
1.676500E-7	3.400204E-3
1.677000E-7	3.461871E-3
1.677500E-7	3.508120E-3
1.678000E-7	3.504694E-3
1.678500E-7	3.449880E-3
1.679000E-7	3.376223E-3
1.679500E-7	3.311131E-3
1.680000E-7	3.211780E-3
1.680500E-7	3.100438E-3
1.681000E-7	2.990809E-3
1.681500E-7	2.913727E-3
1.682000E-7	2.850347E-3
1.682500E-7	2.816088E-3
1.683000E-7	2.805811E-3
1.683500E-7	2.800672E-3
1.684000E-7	2.821227E-3
1.684500E-7	2.841783E-3
1.685000E-7	2.874329E-3
1.685500E-7	2.884606E-3
1.686000E-7	2.905162E-3
1.686500E-7	2.927430E-3
1.687000E-7	2.930856E-3
1.687500E-7	2.924004E-3
1.688000E-7	2.901736E-3
1.688500E-7	2.906875E-3
1.689000E-7	2.917152E-3
1.689500E-7	2.908588E-3
1.690000E-7	2.882893E-3
1.690500E-7	2.908588E-3
1.691000E-7	2.918865E-3
1.691500E-7	2.951411E-3
1.692000E-7	2.935995E-3
1.692500E-7	2.934282E-3
1.693000E-7	2.929143E-3
1.693500E-7	2.903449E-3
1.694000E-7	2.860625E-3
1.694500E-7	2.804098E-3
1.695000E-7	2.757848E-3
1.695500E-7	2.696182E-3
1.696000E-7	2.646506E-3
1.696500E-7	2.620812E-3
1.697000E-7	2.613960E-3
1.697500E-7	2.619099E-3
1.698000E-7	2.643080E-3
1.698500E-7	2.672201E-3
1.699000E-7	2.727015E-3
1.699500E-7	2.798959E-3
1.700000E-7	2.870903E-3
1.700500E-7	2.951411E-3
1.701000E-7	2.995948E-3
1.701500E-7	3.030207E-3
1.702000E-7	3.042198E-3
1.702500E-7	3.028494E-3
1.703000E-7	3.021642E-3
1.703500E-7	2.971967E-3
1.704000E-7	2.912014E-3
1.704500E-7	2.884606E-3
1.705000E-7	2.900023E-3
1.705500E-7	2.908588E-3
1.706000E-7	2.953124E-3
1.706500E-7	3.021642E-3
1.707000E-7	3.138123E-3
1.707500E-7	3.270020E-3
1.708000E-7	3.384788E-3
1.708500E-7	3.458445E-3
1.709000E-7	3.506407E-3
1.709500E-7	3.535527E-3
1.710000E-7	3.487565E-3
1.710500E-7	3.425899E-3
1.711000E-7	3.317983E-3
1.711500E-7	3.172382E-3
1.712000E-7	2.999374E-3
1.712500E-7	2.850347E-3
1.713000E-7	2.713311E-3
1.713500E-7	2.617386E-3
1.714000E-7	2.560859E-3
1.714500E-7	2.514609E-3
1.715000E-7	2.519748E-3
1.715500E-7	2.514609E-3
1.716000E-7	2.538590E-3
1.716500E-7	2.579701E-3
1.717000E-7	2.627664E-3
1.717500E-7	2.639655E-3
1.718000E-7	2.619099E-3
1.718500E-7	2.637942E-3
1.719000E-7	2.608821E-3
1.719500E-7	2.577988E-3
1.720000E-7	2.554007E-3
1.720500E-7	2.555720E-3
1.721000E-7	2.509470E-3
1.721500E-7	2.524887E-3
1.722000E-7	2.560859E-3
1.722500E-7	2.610534E-3
1.723000E-7	2.703034E-3
1.723500E-7	2.797246E-3
1.724000E-7	2.881181E-3
1.724500E-7	2.975393E-3
1.725000E-7	3.088447E-3
1.725500E-7	3.167243E-3
1.726000E-7	3.240900E-3
1.726500E-7	3.283724E-3
1.727000E-7	3.314557E-3
1.727500E-7	3.311131E-3
1.728000E-7	3.261455E-3
1.728500E-7	3.196363E-3
1.729000E-7	3.150114E-3
1.729500E-7	3.057614E-3
1.730000E-7	2.975393E-3
1.730500E-7	2.882893E-3
1.731000E-7	2.814375E-3
1.731500E-7	2.737293E-3
1.732000E-7	2.689330E-3
1.732500E-7	2.658497E-3
1.733000E-7	2.615673E-3
1.733500E-7	2.622525E-3
1.734000E-7	2.639655E-3
1.734500E-7	2.663636E-3
1.735000E-7	2.703034E-3
1.735500E-7	2.766413E-3
1.736000E-7	2.833218E-3
1.736500E-7	2.853773E-3
1.737000E-7	2.908588E-3
1.737500E-7	2.968541E-3
1.738000E-7	2.990809E-3
1.738500E-7	2.990809E-3
1.739000E-7	2.977106E-3
1.739500E-7	2.949699E-3
1.740000E-7	2.929143E-3
1.740500E-7	2.882893E-3
1.741000E-7	2.817801E-3
1.741500E-7	2.780116E-3
1.742000E-7	2.720163E-3
1.742500E-7	2.691043E-3
1.743000E-7	2.720163E-3
1.743500E-7	2.745857E-3
1.744000E-7	2.785255E-3
1.744500E-7	2.816088E-3
1.745000E-7	2.864051E-3
1.745500E-7	2.920578E-3
1.746000E-7	2.997661E-3
1.746500E-7	3.079883E-3
1.747000E-7	3.204928E-3
1.747500E-7	3.333399E-3
1.748000E-7	3.436176E-3
1.748500E-7	3.485852E-3
1.749000E-7	3.566361E-3
1.749500E-7	3.624601E-3
1.750000E-7	3.616036E-3
1.750500E-7	3.605758E-3
1.751000E-7	3.578351E-3
1.751500E-7	3.557796E-3
1.752000E-7	3.511546E-3
1.752500E-7	3.484139E-3
1.753000E-7	3.451593E-3
1.753500E-7	3.453306E-3
1.754000E-7	3.444741E-3
1.754500E-7	3.455019E-3
1.755000E-7	3.484139E-3
1.755500E-7	3.496130E-3
1.756000E-7	3.487565E-3
1.756500E-7	3.508120E-3
1.757000E-7	3.472148E-3
1.757500E-7	3.444741E-3
1.758000E-7	3.417334E-3
1.758500E-7	3.415621E-3
1.759000E-7	3.424186E-3
1.759500E-7	3.408769E-3
1.760000E-7	3.422473E-3
1.760500E-7	3.449880E-3
1.761000E-7	3.465296E-3
1.761500E-7	3.487565E-3
1.762000E-7	3.537240E-3
1.762500E-7	3.588629E-3
1.763000E-7	3.650295E-3
1.763500E-7	3.722239E-3
1.764000E-7	3.771915E-3
1.764500E-7	3.794183E-3
1.765000E-7	3.790757E-3
1.765500E-7	3.768489E-3
1.766000E-7	3.749646E-3
1.766500E-7	3.684554E-3
1.767000E-7	3.643443E-3
1.767500E-7	3.641730E-3
1.768000E-7	3.621175E-3
1.768500E-7	3.643443E-3
1.769000E-7	3.662286E-3
1.769500E-7	3.681128E-3
1.770000E-7	3.703397E-3
1.770500E-7	3.722239E-3
1.771000E-7	3.729091E-3
1.771500E-7	3.667425E-3
1.772000E-7	3.597194E-3
1.772500E-7	3.520111E-3
1.773000E-7	3.463584E-3
1.773500E-7	3.413908E-3
1.774000E-7	3.367658E-3
1.774500E-7	3.336825E-3
1.775000E-7	3.299140E-3
1.775500E-7	3.329973E-3
1.776000E-7	3.420760E-3
1.776500E-7	3.497843E-3
1.777000E-7	3.588629E-3
1.777500E-7	3.657147E-3
1.778000E-7	3.703397E-3
1.778500E-7	3.711961E-3
1.779000E-7	3.727378E-3
1.779500E-7	3.689693E-3
1.780000E-7	3.641730E-3
1.780500E-7	3.568073E-3
1.781000E-7	3.473861E-3
1.781500E-7	3.403630E-3
1.782000E-7	3.300853E-3
1.782500E-7	3.223771E-3
1.783000E-7	3.186086E-3
1.783500E-7	3.215206E-3
1.784000E-7	3.246039E-3
1.784500E-7	3.321409E-3
1.785000E-7	3.427612E-3
1.785500E-7	3.528676E-3
1.786000E-7	3.699971E-3
1.786500E-7	3.833581E-3
1.787000E-7	3.941497E-3
1.787500E-7	4.035709E-3
1.788000E-7	4.100801E-3
1.788500E-7	4.143625E-3
1.789000E-7	4.117930E-3
1.789500E-7	4.071681E-3
1.790000E-7	3.998024E-3
1.790500E-7	3.903812E-3
1.791000E-7	3.773627E-3
1.791500E-7	3.634879E-3
1.792000E-7	3.530389E-3
1.792500E-7	3.437889E-3
1.793000E-7	3.377936E-3
1.793500E-7	3.343677E-3
1.794000E-7	3.333399E-3
1.794500E-7	3.345390E-3
1.795000E-7	3.384788E-3
1.795500E-7	3.424186E-3
1.796000E-7	3.467009E-3
1.796500E-7	3.525250E-3
1.797000E-7	3.595481E-3
1.797500E-7	3.665712E-3
1.798000E-7	3.689693E-3
1.798500E-7	3.746220E-3
1.799000E-7	3.783905E-3
1.799500E-7	3.804461E-3
1.800000E-7	3.785618E-3
1.800500E-7	3.754785E-3
1.801000E-7	3.694832E-3
1.801500E-7	3.602332E-3
1.802000E-7	3.523537E-3
1.802500E-7	3.425899E-3
1.803000E-7	3.343677E-3
1.803500E-7	3.294001E-3
1.804000E-7	3.247752E-3
1.804500E-7	3.198076E-3
1.805000E-7	3.141549E-3
1.805500E-7	3.112429E-3
1.806000E-7	3.083309E-3
1.806500E-7	3.071318E-3
1.807000E-7	3.055901E-3
1.807500E-7	3.033633E-3
1.808000E-7	3.043911E-3
1.808500E-7	3.055901E-3
1.809000E-7	3.114142E-3
1.809500E-7	3.211780E-3
1.810000E-7	3.300853E-3
1.810500E-7	3.407056E-3
1.811000E-7	3.535527E-3
1.811500E-7	3.653721E-3
1.812000E-7	3.783905E-3
1.812500E-7	3.895247E-3
1.813000E-7	3.992885E-3
1.813500E-7	4.049412E-3
1.814000E-7	4.080246E-3
1.814500E-7	4.061403E-3
1.815000E-7	3.991172E-3
1.815500E-7	3.895247E-3
1.816000E-7	3.778766E-3
1.816500E-7	3.652008E-3
1.817000E-7	3.559509E-3
1.817500E-7	3.521824E-3
1.818000E-7	3.526963E-3
1.818500E-7	3.578351E-3
1.819000E-7	3.669138E-3
1.819500E-7	3.737656E-3
1.820000E-7	3.789044E-3
1.820500E-7	3.802748E-3
1.821000E-7	3.790757E-3
1.821500E-7	3.722239E-3
1.822000E-7	3.619462E-3
1.822500E-7	3.501268E-3
1.823000E-7	3.326548E-3
1.823500E-7	3.180947E-3
1.824000E-7	3.055901E-3
1.824500E-7	2.953124E-3
1.825000E-7	2.927430E-3
1.825500E-7	2.942847E-3
1.826000E-7	2.992522E-3
1.826500E-7	3.071318E-3
1.827000E-7	3.155253E-3
1.827500E-7	3.198076E-3
1.828000E-7	3.266594E-3
1.828500E-7	3.287150E-3
1.829000E-7	3.302566E-3
1.829500E-7	3.290576E-3
1.830000E-7	3.235761E-3
1.830500E-7	3.155253E-3
1.831000E-7	3.047337E-3
1.831500E-7	2.930856E-3
1.832000E-7	2.786968E-3
1.832500E-7	2.675626E-3
1.833000E-7	2.535165E-3
1.833500E-7	2.404980E-3
1.834000E-7	2.329611E-3
1.834500E-7	2.314194E-3
1.835000E-7	2.358731E-3
1.835500E-7	2.428962E-3
1.836000E-7	2.547155E-3
1.836500E-7	2.680765E-3
1.837000E-7	2.829792E-3
1.837500E-7	2.995948E-3
1.838000E-7	3.167243E-3
1.838500E-7	3.323122E-3
1.839000E-7	3.441315E-3
1.839500E-7	3.494417E-3
1.840000E-7	3.467009E-3
1.840500E-7	3.412195E-3
1.841000E-7	3.348816E-3
1.841500E-7	3.276872E-3
1.842000E-7	3.220345E-3
1.842500E-7	3.175808E-3
1.843000E-7	3.172382E-3
1.843500E-7	3.208354E-3
1.844000E-7	3.271733E-3
1.844500E-7	3.347103E-3
1.845000E-7	3.424186E-3
1.845500E-7	3.520111E-3
1.846000E-7	3.550944E-3
1.846500E-7	3.556083E-3
1.847000E-7	3.492704E-3
1.847500E-7	3.365945E-3
1.848000E-7	3.222058E-3
1.848500E-7	3.018217E-3
1.849000E-7	2.845209E-3
1.849500E-7	2.713311E-3
1.850000E-7	2.619099E-3
1.850500E-7	2.605396E-3
1.851000E-7	2.655071E-3
1.851500E-7	2.739006E-3
1.852000E-7	2.843496E-3
1.852500E-7	3.001087E-3
1.853000E-7	3.155253E-3
1.853500E-7	3.268307E-3
1.854000E-7	3.371084E-3
1.854500E-7	3.439602E-3
1.855000E-7	3.504694E-3
1.855500E-7	3.554370E-3
1.856000E-7	3.516685E-3
1.856500E-7	3.446454E-3
1.857000E-7	3.398491E-3
1.857500E-7	3.360807E-3
1.858000E-7	3.311131E-3
1.858500E-7	3.275159E-3
1.859000E-7	3.240900E-3
1.859500E-7	3.222058E-3
1.860000E-7	3.198076E-3
1.860500E-7	3.146688E-3
1.861000E-7	3.105577E-3
1.861500E-7	3.073031E-3
1.862000E-7	3.042198E-3
1.862500E-7	2.987383E-3
1.863000E-7	2.968541E-3
1.863500E-7	2.970254E-3
1.864000E-7	2.995948E-3
1.864500E-7	3.030207E-3
1.865000E-7	3.064466E-3
1.865500E-7	3.086735E-3
1.866000E-7	3.122706E-3
1.866500E-7	3.156965E-3
1.867000E-7	3.192937E-3
1.867500E-7	3.220345E-3
1.868000E-7	3.215206E-3
1.868500E-7	3.204928E-3
1.869000E-7	3.189512E-3
1.869500E-7	3.162104E-3
1.870000E-7	3.067892E-3
1.870500E-7	3.011365E-3
1.871000E-7	2.963402E-3
1.871500E-7	2.949699E-3
1.872000E-7	2.927430E-3
1.872500E-7	2.949699E-3
1.873000E-7	3.014791E-3
1.873500E-7	3.127845E-3
1.874000E-7	3.232335E-3
1.874500E-7	3.360807E-3
1.875000E-7	3.504694E-3
1.875500E-7	3.648582E-3
1.876000E-7	3.790757E-3
1.876500E-7	3.929506E-3
1.877000E-7	4.032283E-3
1.877500E-7	4.126495E-3
1.878000E-7	4.176171E-3
1.878500E-7	4.205291E-3
1.879000E-7	4.183023E-3
1.879500E-7	4.128208E-3
1.880000E-7	4.039135E-3
1.880500E-7	3.896960E-3
1.881000E-7	3.780479E-3
1.881500E-7	3.677702E-3
1.882000E-7	3.564648E-3
1.882500E-7	3.448167E-3
1.883000E-7	3.372797E-3
1.883500E-7	3.282011E-3
1.884000E-7	3.196363E-3
1.884500E-7	3.163817E-3
1.885000E-7	3.150114E-3
1.885500E-7	3.148401E-3
1.886000E-7	3.160391E-3
1.886500E-7	3.186086E-3
1.887000E-7	3.247752E-3
1.887500E-7	3.314557E-3
1.888000E-7	3.408769E-3
1.888500E-7	3.485852E-3
1.889000E-7	3.556083E-3
1.889500E-7	3.581777E-3
1.890000E-7	3.585203E-3
1.890500E-7	3.595481E-3
1.891000E-7	3.506407E-3
1.891500E-7	3.422473E-3
1.892000E-7	3.311131E-3
1.892500E-7	3.162104E-3
1.893000E-7	2.994235E-3
1.893500E-7	2.857199E-3
1.894000E-7	2.786968E-3
1.894500E-7	2.711598E-3
1.895000E-7	2.715024E-3
1.895500E-7	2.764700E-3
1.896000E-7	2.840070E-3
1.896500E-7	2.959976E-3
1.897000E-7	3.076457E-3
1.897500E-7	3.191224E-3
1.898000E-7	3.237474E-3
1.898500E-7	3.264881E-3
1.899000E-7	3.239187E-3
1.899500E-7	3.168956E-3
1.900000E-7	3.069605E-3
1.900500E-7	2.935995E-3
1.901000E-7	2.809237E-3
1.901500E-7	2.747570E-3
1.902000E-7	2.653358E-3
1.902500E-7	2.622525E-3
1.903000E-7	2.625951E-3
1.903500E-7	2.643080E-3
1.904000E-7	2.715024E-3
1.904500E-7	2.800672E-3
1.905000E-7	2.903449E-3
1.905500E-7	3.028494E-3
1.906000E-7	3.091873E-3
1.906500E-7	3.102151E-3
1.907000E-7	3.083309E-3
1.907500E-7	3.043911E-3
1.908000E-7	2.999374E-3
1.908500E-7	2.978819E-3
1.909000E-7	2.983958E-3
1.909500E-7	3.037059E-3
1.910000E-7	3.066179E-3
1.910500E-7	3.119281E-3
1.911000E-7	3.186086E-3
1.911500E-7	3.256317E-3
1.912000E-7	3.323122E-3
1.912500E-7	3.355668E-3
1.913000E-7	3.360807E-3
1.913500E-7	3.329973E-3
1.914000E-7	3.290576E-3
1.914500E-7	3.263168E-3
1.915000E-7	3.278585E-3
1.915500E-7	3.283724E-3
1.916000E-7	3.326548E-3
1.916500E-7	3.398491E-3
1.917000E-7	3.489278E-3
1.917500E-7	3.568073E-3
1.918000E-7	3.633166E-3
1.918500E-7	3.682841E-3
1.919000E-7	3.677702E-3
1.919500E-7	3.655434E-3
1.920000E-7	3.574925E-3
1.920500E-7	3.460158E-3
1.921000E-7	3.294001E-3
1.921500E-7	3.112429E-3
1.922000E-7	2.915440E-3
1.922500E-7	2.742432E-3
1.923000E-7	2.646506E-3
1.923500E-7	2.588266E-3
1.924000E-7	2.569424E-3
1.924500E-7	2.576275E-3
1.925000E-7	2.601970E-3
1.925500E-7	2.677339E-3
1.926000E-7	2.764700E-3
1.926500E-7	2.822940E-3
1.927000E-7	2.903449E-3
1.927500E-7	2.971967E-3
1.928000E-7	3.040485E-3
1.928500E-7	3.067892E-3
1.929000E-7	3.151827E-3
1.929500E-7	3.232335E-3
1.930000E-7	3.276872E-3
1.930500E-7	3.285437E-3
1.931000E-7	3.261455E-3
1.931500E-7	3.261455E-3
1.932000E-7	3.256317E-3
1.932500E-7	3.256317E-3
1.933000E-7	3.240900E-3
1.933500E-7	3.215206E-3
1.934000E-7	3.156965E-3
1.934500E-7	3.067892E-3
1.935000E-7	2.961689E-3
1.935500E-7	2.855486E-3
1.936000E-7	2.732154E-3
1.936500E-7	2.619099E-3
1.937000E-7	2.518035E-3
1.937500E-7	2.458082E-3
1.938000E-7	2.394703E-3
1.938500E-7	2.416971E-3
1.939000E-7	2.384425E-3
1.939500E-7	2.401554E-3
1.940000E-7	2.432388E-3
1.940500E-7	2.490628E-3
1.941000E-7	2.581414E-3
1.941500E-7	2.658497E-3
1.942000E-7	2.749283E-3
1.942500E-7	2.810950E-3
1.943000E-7	2.852060E-3
1.943500E-7	2.905162E-3
1.944000E-7	2.953124E-3
1.944500E-7	2.977106E-3
1.945000E-7	2.966828E-3
1.945500E-7	2.987383E-3
1.946000E-7	2.990809E-3
1.946500E-7	3.009652E-3
1.947000E-7	3.042198E-3
1.947500E-7	3.030207E-3
1.948000E-7	3.028494E-3
1.948500E-7	3.009652E-3
1.949000E-7	3.014791E-3
1.949500E-7	2.994235E-3
1.950000E-7	2.958263E-3
1.950500E-7	2.924004E-3
1.951000E-7	2.908588E-3
1.951500E-7	2.959976E-3
1.952000E-7	3.007939E-3
1.952500E-7	3.033633E-3
1.953000E-7	3.073031E-3
1.953500E-7	3.138123E-3
1.954000E-7	3.165530E-3
1.954500E-7	3.194650E-3
1.955000E-7	3.184373E-3
1.955500E-7	3.134697E-3
1.956000E-7	3.049050E-3
1.956500E-7	2.949699E-3
1.957000E-7	2.826366E-3
1.957500E-7	2.742432E-3
1.958000E-7	2.677339E-3
1.958500E-7	2.658497E-3
1.959000E-7	2.691043E-3
1.959500E-7	2.732154E-3
1.960000E-7	2.798959E-3
1.960500E-7	2.862338E-3
1.961000E-7	2.956550E-3
1.961500E-7	3.045624E-3
1.962000E-7	3.119281E-3
1.962500E-7	3.158678E-3
1.963000E-7	3.162104E-3
1.963500E-7	3.122706E-3
1.964000E-7	3.037059E-3
1.964500E-7	2.968541E-3
1.965000E-7	2.860625E-3
1.965500E-7	2.721876E-3
1.966000E-7	2.624238E-3
1.966500E-7	2.523174E-3
1.967000E-7	2.482063E-3
1.967500E-7	2.468360E-3
1.968000E-7	2.545442E-3
1.968500E-7	2.639655E-3
1.969000E-7	2.721876E-3
1.969500E-7	2.836644E-3
1.970000E-7	2.954837E-3
1.970500E-7	3.028494E-3
1.971000E-7	3.088447E-3
1.971500E-7	3.110716E-3
1.972000E-7	3.093586E-3
1.972500E-7	3.043911E-3
1.973000E-7	2.990809E-3
1.973500E-7	2.930856E-3
1.974000E-7	2.852060E-3
1.974500E-7	2.776691E-3
1.975000E-7	2.680765E-3
1.975500E-7	2.596831E-3
1.976000E-7	2.528313E-3
1.976500E-7	2.458082E-3
1.977000E-7	2.446091E-3
1.977500E-7	2.480350E-3
1.978000E-7	2.512896E-3
1.978500E-7	2.560859E-3
1.979000E-7	2.656784E-3
1.979500E-7	2.721876E-3
1.980000E-7	2.810950E-3
1.980500E-7	2.900023E-3
1.981000E-7	2.978819E-3
1.981500E-7	3.073031E-3
1.982000E-7	3.144975E-3
1.982500E-7	3.177521E-3
1.983000E-7	3.177521E-3
1.983500E-7	3.218632E-3
1.984000E-7	3.247752E-3
1.984500E-7	3.292289E-3
1.985000E-7	3.347103E-3
1.985500E-7	3.384788E-3
1.986000E-7	3.470435E-3
1.986500E-7	3.545805E-3
1.987000E-7	3.641730E-3
1.987500E-7	3.711961E-3
1.988000E-7	3.722239E-3
1.988500E-7	3.720526E-3
1.989000E-7	3.674276E-3
1.989500E-7	3.609184E-3
1.990000E-7	3.532102E-3
1.990500E-7	3.441315E-3
1.991000E-7	3.376223E-3
1.991500E-7	3.326548E-3
1.992000E-7	3.283724E-3
1.992500E-7	3.230622E-3
1.993000E-7	3.222058E-3
1.993500E-7	3.194650E-3
1.994000E-7	3.153540E-3
1.994500E-7	3.095299E-3
1.995000E-7	3.031920E-3
1.995500E-7	2.975393E-3
1.996000E-7	2.898310E-3
1.996500E-7	2.846922E-3
1.997000E-7	2.788681E-3
1.997500E-7	2.752709E-3
1.998000E-7	2.718450E-3
1.998500E-7	2.735580E-3
1.999000E-7	2.810950E-3
1.999500E-7	2.896597E-3
2.000000E-7	2.980532E-3
2.000500E-7	3.085022E-3
