Study Name	V_single_crystal
Sample Name	0dpa
Run Name	10degreesSpot4
Operator	Angus Wylie
Date	8/5/2019
Time	15:09
Sign	FIX
Grating Spacing	06.40um
Channel	3
Number Traces	10000
Files in Batch	1
Batch Number	1
dt	50.000001E-12
time stamp (ms)	15:11:08
	
Time	Amplitude
0.000000E+0	2.055534E-5
5.000000E-11	1.370356E-5
1.000000E-10	3.425890E-6
1.500000E-10	-2.055534E-5
2.000000E-10	-2.740712E-5
2.500000E-10	-3.425890E-5
3.000000E-10	-7.194369E-5
3.500000E-10	-1.062026E-4
4.000000E-10	-9.935081E-5
4.500000E-10	-1.130544E-4
5.000000E-10	-1.575909E-4
5.500000E-10	-2.021275E-4
6.000000E-10	-2.158311E-4
6.500000E-10	-2.124052E-4
7.000000E-10	-1.918498E-4
7.500000E-10	-1.781463E-4
8.000000E-10	-1.815722E-4
8.500000E-10	-1.678686E-4
9.000000E-10	-1.199062E-4
9.500000E-10	-7.536958E-5
1.000000E-9	-3.768479E-5
1.050000E-9	3.425890E-6
1.100000E-9	3.083301E-5
1.150000E-9	5.824013E-5
1.200000E-9	9.935081E-5
1.250000E-9	1.233320E-4
1.300000E-9	1.199062E-4
1.350000E-9	1.130544E-4
1.400000E-9	1.301838E-4
1.450000E-9	1.301838E-4
1.500000E-9	1.062026E-4
1.550000E-9	8.222136E-5
1.600000E-9	5.138835E-5
1.650000E-9	-3.425890E-6
1.700000E-9	-5.824013E-5
1.750000E-9	-9.592492E-5
1.800000E-9	-1.027767E-4
1.850000E-9	-1.233320E-4
1.900000E-9	-1.575909E-4
1.950000E-9	-1.541651E-4
2.000000E-9	-1.233320E-4
2.050000E-9	-1.062026E-4
2.100000E-9	-6.509191E-5
2.150000E-9	-1.027767E-5
2.200000E-9	2.398123E-5
2.250000E-9	6.851780E-5
2.300000E-9	1.438874E-4
2.350000E-9	1.815722E-4
2.400000E-9	1.918498E-4
2.450000E-9	2.261087E-4
2.500000E-9	2.672194E-4
2.550000E-9	2.843489E-4
2.600000E-9	3.117560E-4
2.650000E-9	3.494408E-4
2.700000E-9	3.768479E-4
2.750000E-9	3.939774E-4
2.800000E-9	4.248104E-4
2.850000E-9	4.590693E-4
2.900000E-9	4.624952E-4
2.950000E-9	4.316622E-4
3.000000E-9	4.042550E-4
3.050000E-9	3.631444E-4
3.100000E-9	3.014783E-4
3.150000E-9	2.535159E-4
3.200000E-9	2.089793E-4
3.250000E-9	1.473133E-4
3.300000E-9	1.062026E-4
3.350000E-9	1.096285E-4
3.400000E-9	1.473133E-4
3.450000E-9	2.192570E-4
3.500000E-9	3.117560E-4
3.550000E-9	3.871256E-4
3.600000E-9	4.556434E-4
3.650000E-9	5.378647E-4
3.700000E-9	6.063825E-4
3.750000E-9	6.372156E-4
3.800000E-9	6.269379E-4
3.850000E-9	5.858272E-4
3.900000E-9	5.036058E-4
3.950000E-9	3.939774E-4
4.000000E-9	2.637935E-4
4.050000E-9	1.473133E-4
4.100000E-9	3.083301E-5
4.150000E-9	-8.907314E-5
4.200000E-9	-1.781463E-4
4.250000E-9	-2.295346E-4
4.300000E-9	-2.843489E-4
4.350000E-9	-3.117560E-4
4.400000E-9	-2.706453E-4
4.450000E-9	-2.226829E-4
4.500000E-9	-1.952757E-4
4.550000E-9	-1.438874E-4
4.600000E-9	-5.824013E-5
4.650000E-9	6.851780E-6
4.700000E-9	4.796246E-5
4.750000E-9	9.935081E-5
4.800000E-9	1.301838E-4
4.850000E-9	1.027767E-4
4.900000E-9	5.824013E-5
4.950000E-9	1.370356E-5
5.000000E-9	-6.851780E-5
5.050000E-9	-1.678686E-4
5.100000E-9	-2.432382E-4
5.150000E-9	-3.151819E-4
5.200000E-9	-3.562926E-4
5.250000E-9	-3.425890E-4
5.300000E-9	-2.980524E-4
5.350000E-9	-2.295346E-4
5.400000E-9	-1.096285E-4
5.450000E-9	0.000000E+0
5.500000E-9	9.249903E-5
5.550000E-9	2.158311E-4
5.600000E-9	3.288854E-4
5.650000E-9	3.974033E-4
5.700000E-9	4.624952E-4
5.750000E-9	4.967541E-4
5.800000E-9	4.556434E-4
5.850000E-9	3.871256E-4
5.900000E-9	3.117560E-4
5.950000E-9	2.021275E-4
6.000000E-9	9.935081E-5
6.050000E-9	3.768479E-5
6.100000E-9	-1.027767E-5
6.150000E-9	-3.425890E-5
6.200000E-9	-2.740712E-5
6.250000E-9	-6.851780E-6
6.300000E-9	2.398123E-5
6.350000E-9	7.194369E-5
6.400000E-9	1.370356E-4
6.450000E-9	2.226829E-4
6.500000E-9	3.151819E-4
6.550000E-9	3.768479E-4
6.600000E-9	4.282363E-4
6.650000E-9	4.522175E-4
6.700000E-9	4.316622E-4
6.750000E-9	4.111068E-4
6.800000E-9	4.111068E-4
6.850000E-9	3.905515E-4
6.900000E-9	3.665702E-4
6.950000E-9	4.008291E-4
7.000000E-9	5.070317E-4
7.050000E-9	7.023075E-4
7.100000E-9	1.086007E-3
7.150000E-9	1.719797E-3
7.200000E-9	2.637935E-3
7.250000E-9	3.960329E-3
7.300000E-9	5.841143E-3
7.350000E-9	8.324913E-3
7.400000E-9	1.142877E-2
7.450000E-9	1.525206E-2
7.500000E-9	1.979137E-2
7.550000E-9	2.495076E-2
7.600000E-9	3.059662E-2
7.650000E-9	3.658165E-2
7.700000E-9	4.268659E-2
7.750000E-9	4.868190E-2
7.800000E-9	5.434489E-2
7.850000E-9	5.946317E-2
7.900000E-9	6.387915E-2
7.950000E-9	6.750374E-2
8.000000E-9	7.027871E-2
8.050000E-9	7.221434E-2
8.100000E-9	7.346821E-2
8.150000E-9	7.424589E-2
8.200000E-9	7.469811E-2
8.250000E-9	7.500644E-2
8.300000E-9	7.536273E-2
8.350000E-9	7.594856E-2
8.400000E-9	7.689068E-2
8.450000E-9	7.818566E-2
8.500000E-9	7.979241E-2
8.550000E-9	8.166979E-2
8.600000E-9	8.368422E-2
8.650000E-9	8.566096E-2
8.700000E-9	8.746297E-2
8.750000E-9	8.895324E-2
8.800000E-9	9.001184E-2
8.850000E-9	9.052915E-2
8.900000E-9	9.046405E-2
8.950000E-9	8.978915E-2
9.000000E-9	8.852500E-2
9.050000E-9	8.675381E-2
9.100000E-9	8.454412E-2
9.150000E-9	8.196442E-2
9.200000E-9	7.912436E-2
9.250000E-9	7.612328E-2
9.300000E-9	7.306053E-2
9.350000E-9	7.003205E-2
9.400000E-9	6.713032E-2
9.450000E-9	6.439646E-2
9.500000E-9	6.185787E-2
9.550000E-9	5.955910E-2
9.600000E-9	5.756523E-2
9.650000E-9	5.588312E-2
9.700000E-9	5.446823E-2
9.750000E-9	5.331028E-2
9.800000E-9	5.240927E-2
9.850000E-9	5.176177E-2
9.900000E-9	5.130270E-2
9.950000E-9	5.098410E-2
1.000000E-8	5.078882E-2
1.005000E-8	5.070317E-2
1.010000E-8	5.070660E-2
1.015000E-8	5.078197E-2
1.020000E-8	5.091900E-2
1.025000E-8	5.112113E-2
1.030000E-8	5.141233E-2
1.035000E-8	5.182001E-2
1.040000E-8	5.235445E-2
1.045000E-8	5.306019E-2
1.050000E-8	5.393721E-2
1.055000E-8	5.497868E-2
1.060000E-8	5.621200E-2
1.065000E-8	5.763375E-2
1.070000E-8	5.920281E-2
1.075000E-8	6.086094E-2
1.080000E-8	6.258073E-2
1.085000E-8	6.433136E-2
1.090000E-8	6.604774E-2
1.095000E-8	6.769901E-2
1.100000E-8	6.923724E-2
1.105000E-8	7.060074E-2
1.110000E-8	7.175869E-2
1.115000E-8	7.272480E-2
1.120000E-8	7.346136E-2
1.125000E-8	7.391358E-2
1.130000E-8	7.411913E-2
1.135000E-8	7.409858E-2
1.140000E-8	7.382451E-2
1.145000E-8	7.334488E-2
1.150000E-8	7.266655E-2
1.155000E-8	7.176212E-2
1.160000E-8	7.068296E-2
1.165000E-8	6.949761E-2
1.170000E-8	6.818549E-2
1.175000E-8	6.676032E-2
1.180000E-8	6.528376E-2
1.185000E-8	6.376609E-2
1.190000E-8	6.219703E-2
1.195000E-8	6.063140E-2
1.200000E-8	5.908975E-2
1.205000E-8	5.754810E-2
1.210000E-8	5.601673E-2
1.215000E-8	5.455387E-2
1.220000E-8	5.313213E-2
1.225000E-8	5.172409E-2
1.230000E-8	5.038114E-2
1.235000E-8	4.914097E-2
1.240000E-8	4.797959E-2
1.245000E-8	4.691756E-2
1.250000E-8	4.599600E-2
1.255000E-8	4.519777E-2
1.260000E-8	4.453315E-2
1.265000E-8	4.409806E-2
1.270000E-8	4.389593E-2
1.275000E-8	4.388223E-2
1.280000E-8	4.408778E-2
1.285000E-8	4.455713E-2
1.290000E-8	4.524573E-2
1.295000E-8	4.613646E-2
1.300000E-8	4.724988E-2
1.305000E-8	4.854829E-2
1.310000E-8	4.997688E-2
1.315000E-8	5.148085E-2
1.320000E-8	5.307732E-2
1.325000E-8	5.469776E-2
1.330000E-8	5.628737E-2
1.335000E-8	5.784273E-2
1.340000E-8	5.934669E-2
1.345000E-8	6.072390E-2
1.350000E-8	6.196750E-2
1.355000E-8	6.310832E-2
1.360000E-8	6.412238E-2
1.365000E-8	6.497543E-2
1.370000E-8	6.569144E-2
1.375000E-8	6.626699E-2
1.380000E-8	6.669523E-2
1.385000E-8	6.702754E-2
1.390000E-8	6.722624E-2
1.395000E-8	6.723994E-2
1.400000E-8	6.708921E-2
1.405000E-8	6.679115E-2
1.410000E-8	6.629783E-2
1.415000E-8	6.560237E-2
1.420000E-8	6.474590E-2
1.425000E-8	6.370100E-2
1.430000E-8	6.245055E-2
1.435000E-8	6.106307E-2
1.440000E-8	5.955910E-2
1.445000E-8	5.795921E-2
1.450000E-8	5.629765E-2
1.455000E-8	5.462924E-2
1.460000E-8	5.296769E-2
1.465000E-8	5.134381E-2
1.470000E-8	4.978846E-2
1.475000E-8	4.833246E-2
1.480000E-8	4.698266E-2
1.485000E-8	4.574248E-2
1.490000E-8	4.461879E-2
1.495000E-8	4.360816E-2
1.500000E-8	4.273798E-2
1.505000E-8	4.204252E-2
1.510000E-8	4.151151E-2
1.515000E-8	4.114151E-2
1.520000E-8	4.096679E-2
1.525000E-8	4.098735E-2
1.530000E-8	4.119290E-2
1.535000E-8	4.160058E-2
1.540000E-8	4.220354E-2
1.545000E-8	4.298464E-2
1.550000E-8	4.392676E-2
1.555000E-8	4.499564E-2
1.560000E-8	4.616044E-2
1.565000E-8	4.740747E-2
1.570000E-8	4.871616E-2
1.575000E-8	5.008309E-2
1.580000E-8	5.149113E-2
1.585000E-8	5.290259E-2
1.590000E-8	5.427295E-2
1.595000E-8	5.562960E-2
1.600000E-8	5.696570E-2
1.605000E-8	5.825384E-2
1.610000E-8	5.945290E-2
1.615000E-8	6.055261E-2
1.620000E-8	6.154954E-2
1.625000E-8	6.240259E-2
1.630000E-8	6.307406E-2
1.635000E-8	6.356739E-2
1.640000E-8	6.388600E-2
1.645000E-8	6.398192E-2
1.650000E-8	6.386544E-2
1.655000E-8	6.357082E-2
1.660000E-8	6.307406E-2
1.665000E-8	6.236148E-2
1.670000E-8	6.147417E-2
1.675000E-8	6.044983E-2
1.680000E-8	5.927475E-2
1.685000E-8	5.795236E-2
1.690000E-8	5.653061E-2
1.695000E-8	5.501979E-2
1.700000E-8	5.344389E-2
1.705000E-8	5.184399E-2
1.710000E-8	5.020985E-2
1.715000E-8	4.855171E-2
1.720000E-8	4.694497E-2
1.725000E-8	4.541703E-2
1.730000E-8	4.393704E-2
1.735000E-8	4.254613E-2
1.740000E-8	4.130253E-2
1.745000E-8	4.019597E-2
1.750000E-8	3.923672E-2
1.755000E-8	3.846932E-2
1.760000E-8	3.789034E-2
1.765000E-8	3.748609E-2
1.770000E-8	3.728054E-2
1.775000E-8	3.727368E-2
1.780000E-8	3.743813E-2
1.785000E-8	3.779442E-2
1.790000E-8	3.835627E-2
1.795000E-8	3.906200E-2
1.800000E-8	3.989792E-2
1.805000E-8	4.089142E-2
1.810000E-8	4.202539E-2
1.815000E-8	4.326557E-2
1.820000E-8	4.461194E-2
1.825000E-8	4.603711E-2
1.830000E-8	4.748969E-2
1.835000E-8	4.898338E-2
1.840000E-8	5.051818E-2
1.845000E-8	5.200159E-2
1.850000E-8	5.341990E-2
1.855000E-8	5.479026E-2
1.860000E-8	5.604756E-2
1.865000E-8	5.716440E-2
1.870000E-8	5.816134E-2
1.875000E-8	5.901781E-2
1.880000E-8	5.969956E-2
1.885000E-8	6.021002E-2
1.890000E-8	6.054918E-2
1.895000E-8	6.069992E-2
1.900000E-8	6.067937E-2
1.905000E-8	6.050122E-2
1.910000E-8	6.015520E-2
1.915000E-8	5.961391E-2
1.920000E-8	5.889448E-2
1.925000E-8	5.803458E-2
1.930000E-8	5.702737E-2
1.935000E-8	5.586599E-2
1.940000E-8	5.456758E-2
1.945000E-8	5.315268E-2
1.950000E-8	5.162816E-2
1.955000E-8	5.004198E-2
1.960000E-8	4.844209E-2
1.965000E-8	4.682507E-2
1.970000E-8	4.517379E-2
1.975000E-8	4.353964E-2
1.980000E-8	4.197743E-2
1.985000E-8	4.051800E-2
1.990000E-8	3.917163E-2
1.995000E-8	3.796229E-2
2.000000E-8	3.692082E-2
2.005000E-8	3.607805E-2
2.010000E-8	3.545796E-2
2.015000E-8	3.505371E-2
2.020000E-8	3.488241E-2
2.025000E-8	3.495436E-2
2.030000E-8	3.524213E-2
2.035000E-8	3.574231E-2
2.040000E-8	3.643777E-2
2.045000E-8	3.729081E-2
2.050000E-8	3.830488E-2
2.055000E-8	3.945940E-2
2.060000E-8	4.068930E-2
2.065000E-8	4.194660E-2
2.070000E-8	4.324844E-2
2.075000E-8	4.458453E-2
2.080000E-8	4.592063E-2
2.085000E-8	4.721904E-2
2.090000E-8	4.848320E-2
2.095000E-8	4.970967E-2
2.100000E-8	5.089845E-2
2.105000E-8	5.202214E-2
2.110000E-8	5.306361E-2
2.115000E-8	5.403314E-2
2.120000E-8	5.491017E-2
2.125000E-8	5.567071E-2
2.130000E-8	5.628737E-2
2.135000E-8	5.674987E-2
2.140000E-8	5.707190E-2
2.145000E-8	5.722949E-2
2.150000E-8	5.718838E-2
2.155000E-8	5.693144E-2
2.160000E-8	5.646552E-2
2.165000E-8	5.582831E-2
2.170000E-8	5.503007E-2
2.175000E-8	5.407425E-2
2.180000E-8	5.297111E-2
2.185000E-8	5.174464E-2
2.190000E-8	5.043595E-2
2.195000E-8	4.905875E-2
2.200000E-8	4.761302E-2
2.205000E-8	4.608165E-2
2.210000E-8	4.450574E-2
2.215000E-8	4.292640E-2
2.220000E-8	4.136762E-2
2.225000E-8	3.982255E-2
2.230000E-8	3.832543E-2
2.235000E-8	3.689684E-2
2.240000E-8	3.554018E-2
2.245000E-8	3.432057E-2
2.250000E-8	3.327224E-2
2.255000E-8	3.239522E-2
2.260000E-8	3.172374E-2
2.265000E-8	3.128180E-2
2.270000E-8	3.103171E-2
2.275000E-8	3.095292E-2
2.280000E-8	3.109338E-2
2.285000E-8	3.142569E-2
2.290000E-8	3.191217E-2
2.295000E-8	3.255623E-2
2.300000E-8	3.335104E-2
2.305000E-8	3.423835E-2
2.310000E-8	3.520787E-2
2.315000E-8	3.629731E-2
2.320000E-8	3.749637E-2
2.325000E-8	3.878450E-2
2.330000E-8	4.016856E-2
2.335000E-8	4.158345E-2
2.340000E-8	4.300177E-2
2.345000E-8	4.447833E-2
2.350000E-8	4.597545E-2
2.355000E-8	4.741089E-2
2.360000E-8	4.877097E-2
2.365000E-8	5.003855E-2
2.370000E-8	5.118622E-2
2.375000E-8	5.220029E-2
2.380000E-8	5.304991E-2
2.385000E-8	5.370083E-2
2.390000E-8	5.416675E-2
2.395000E-8	5.445110E-2
2.400000E-8	5.454360E-2
2.405000E-8	5.443397E-2
2.410000E-8	5.413934E-2
2.415000E-8	5.364259E-2
2.420000E-8	5.297111E-2
2.425000E-8	5.214890E-2
2.430000E-8	5.116224E-2
2.435000E-8	5.002485E-2
2.440000E-8	4.878810E-2
2.445000E-8	4.745886E-2
2.450000E-8	4.601998E-2
2.455000E-8	4.452287E-2
2.460000E-8	4.301205E-2
2.465000E-8	4.148753E-2
2.470000E-8	3.995616E-2
2.475000E-8	3.845562E-2
2.480000E-8	3.701332E-2
2.485000E-8	3.563268E-2
2.490000E-8	3.432057E-2
2.495000E-8	3.311465E-2
2.500000E-8	3.202179E-2
2.505000E-8	3.106597E-2
2.510000E-8	3.025061E-2
2.515000E-8	2.958599E-2
2.520000E-8	2.908923E-2
2.525000E-8	2.878433E-2
2.530000E-8	2.869183E-2
2.535000E-8	2.882201E-2
2.540000E-8	2.916118E-2
2.545000E-8	2.969219E-2
2.550000E-8	3.043218E-2
2.555000E-8	3.136745E-2
2.560000E-8	3.245003E-2
2.565000E-8	3.365252E-2
2.570000E-8	3.500232E-2
2.575000E-8	3.644804E-2
2.580000E-8	3.794516E-2
2.585000E-8	3.946625E-2
2.590000E-8	4.100790E-2
2.595000E-8	4.252900E-2
2.600000E-8	4.400898E-2
2.605000E-8	4.540675E-2
2.610000E-8	4.671201E-2
2.615000E-8	4.792478E-2
2.620000E-8	4.903134E-2
2.625000E-8	5.001114E-2
2.630000E-8	5.084363E-2
2.635000E-8	5.154252E-2
2.640000E-8	5.208723E-2
2.645000E-8	5.244695E-2
2.650000E-8	5.262167E-2
2.655000E-8	5.261139E-2
2.660000E-8	5.242640E-2
2.665000E-8	5.206668E-2
2.670000E-8	5.149798E-2
2.675000E-8	5.073743E-2
2.680000E-8	4.981587E-2
2.685000E-8	4.873329E-2
2.690000E-8	4.748284E-2
2.695000E-8	4.612961E-2
2.700000E-8	4.469074E-2
2.705000E-8	4.313538E-2
2.710000E-8	4.152864E-2
2.715000E-8	3.993218E-2
2.720000E-8	3.832543E-2
2.725000E-8	3.672554E-2
2.730000E-8	3.517361E-2
2.735000E-8	3.371761E-2
2.740000E-8	3.240207E-2
2.745000E-8	3.121671E-2
2.750000E-8	3.013413E-2
2.755000E-8	2.920914E-2
2.760000E-8	2.849655E-2
2.765000E-8	2.794156E-2
2.770000E-8	2.754758E-2
2.775000E-8	2.735573E-2
2.780000E-8	2.733175E-2
2.785000E-8	2.744823E-2
2.790000E-8	2.775999E-2
2.795000E-8	2.827387E-2
2.800000E-8	2.891794E-2
2.805000E-8	2.968876E-2
2.810000E-8	3.062746E-2
2.815000E-8	3.170319E-2
2.820000E-8	3.289197E-2
2.825000E-8	3.419038E-2
2.830000E-8	3.556074E-2
2.835000E-8	3.698934E-2
2.840000E-8	3.848302E-2
2.845000E-8	4.000754E-2
2.850000E-8	4.149781E-2
2.855000E-8	4.294696E-2
2.860000E-8	4.435500E-2
2.865000E-8	4.566369E-2
2.870000E-8	4.682164E-2
2.875000E-8	4.783913E-2
2.880000E-8	4.870588E-2
2.885000E-8	4.938078E-2
2.890000E-8	4.987068E-2
2.895000E-8	5.014818E-2
2.900000E-8	5.021327E-2
2.905000E-8	5.009337E-2
2.910000E-8	4.979531E-2
2.915000E-8	4.929856E-2
2.920000E-8	4.864079E-2
2.925000E-8	4.785283E-2
2.930000E-8	4.691756E-2
2.935000E-8	4.583498E-2
2.940000E-8	4.467703E-2
2.945000E-8	4.345742E-2
2.950000E-8	4.215215E-2
2.955000E-8	4.077494E-2
2.960000E-8	3.938061E-2
2.965000E-8	3.798970E-2
2.970000E-8	3.660906E-2
2.975000E-8	3.525241E-2
2.980000E-8	3.394372E-2
2.985000E-8	3.267957E-2
2.990000E-8	3.147708E-2
2.995000E-8	3.036366E-2
3.000000E-8	2.936330E-2
3.005000E-8	2.848285E-2
3.010000E-8	2.773943E-2
3.015000E-8	2.716046E-2
3.020000E-8	2.674935E-2
3.025000E-8	2.648213E-2
3.030000E-8	2.635880E-2
3.035000E-8	2.643759E-2
3.040000E-8	2.672194E-2
3.045000E-8	2.715703E-2
3.050000E-8	2.775314E-2
3.055000E-8	2.851026E-2
3.060000E-8	2.935988E-2
3.065000E-8	3.031228E-2
3.070000E-8	3.139143E-2
3.075000E-8	3.252540E-2
3.080000E-8	3.371076E-2
3.085000E-8	3.498519E-2
3.090000E-8	3.629731E-2
3.095000E-8	3.759914E-2
3.100000E-8	3.892839E-2
3.105000E-8	4.028162E-2
3.110000E-8	4.159373E-2
3.115000E-8	4.279279E-2
3.120000E-8	4.388223E-2
3.125000E-8	4.487916E-2
3.130000E-8	4.572878E-2
3.135000E-8	4.639340E-2
3.140000E-8	4.688331E-2
3.145000E-8	4.719164E-2
3.150000E-8	4.730126E-2
3.155000E-8	4.721904E-2
3.160000E-8	4.695525E-2
3.165000E-8	4.651331E-2
3.170000E-8	4.593091E-2
3.175000E-8	4.523545E-2
3.180000E-8	4.442352E-2
3.185000E-8	4.349167E-2
3.190000E-8	4.248789E-2
3.195000E-8	4.142586E-2
3.200000E-8	4.029189E-2
3.205000E-8	3.909968E-2
3.210000E-8	3.786636E-2
3.215000E-8	3.660564E-2
3.220000E-8	3.533806E-2
3.225000E-8	3.407733E-2
3.230000E-8	3.281660E-2
3.235000E-8	3.160726E-2
3.240000E-8	3.048014E-2
3.245000E-8	2.941469E-2
3.250000E-8	2.840748E-2
3.255000E-8	2.753388E-2
3.260000E-8	2.679046E-2
3.265000E-8	2.614982E-2
3.270000E-8	2.562566E-2
3.275000E-8	2.527622E-2
3.280000E-8	2.508094E-2
3.285000E-8	2.505011E-2
3.290000E-8	2.520770E-2
3.295000E-8	2.551603E-2
3.300000E-8	2.597167E-2
3.305000E-8	2.661574E-2
3.310000E-8	2.743453E-2
3.315000E-8	2.838350E-2
3.320000E-8	2.945580E-2
3.325000E-8	3.063431E-2
3.330000E-8	3.188133E-2
3.335000E-8	3.319688E-2
3.340000E-8	3.456038E-2
3.345000E-8	3.591018E-2
3.350000E-8	3.721202E-2
3.355000E-8	3.846589E-2
3.360000E-8	3.967181E-2
3.365000E-8	4.081605E-2
3.370000E-8	4.186095E-2
3.375000E-8	4.279279E-2
3.380000E-8	4.360130E-2
3.385000E-8	4.429676E-2
3.390000E-8	4.486203E-2
3.395000E-8	4.528342E-2
3.400000E-8	4.557119E-2
3.405000E-8	4.571850E-2
3.410000E-8	4.567397E-2
3.415000E-8	4.545471E-2
3.420000E-8	4.508471E-2
3.425000E-8	4.455370E-2
3.430000E-8	4.383426E-2
3.435000E-8	4.295724E-2
3.440000E-8	4.194660E-2
3.445000E-8	4.078865E-2
3.450000E-8	3.951422E-2
3.455000E-8	3.816784E-2
3.460000E-8	3.677693E-2
3.465000E-8	3.533463E-2
3.470000E-8	3.385807E-2
3.475000E-8	3.239864E-2
3.480000E-8	3.099745E-2
3.485000E-8	2.968876E-2
3.490000E-8	2.847942E-2
3.495000E-8	2.738314E-2
3.500000E-8	2.640333E-2
3.505000E-8	2.557084E-2
3.510000E-8	2.488224E-2
3.515000E-8	2.433752E-2
3.520000E-8	2.397438E-2
3.525000E-8	2.376197E-2
3.530000E-8	2.369346E-2
3.535000E-8	2.380308E-2
3.540000E-8	2.407373E-2
3.545000E-8	2.445058E-2
3.550000E-8	2.495761E-2
3.555000E-8	2.560853E-2
3.560000E-8	2.637935E-2
3.565000E-8	2.722897E-2
3.570000E-8	2.818480E-2
3.575000E-8	2.923655E-2
3.580000E-8	3.037052E-2
3.585000E-8	3.156615E-2
3.590000E-8	3.279605E-2
3.595000E-8	3.406020E-2
3.600000E-8	3.535519E-2
3.605000E-8	3.663647E-2
3.610000E-8	3.787322E-2
3.615000E-8	3.905515E-2
3.620000E-8	4.015828E-2
3.625000E-8	4.115864E-2
3.630000E-8	4.205280E-2
3.635000E-8	4.277566E-2
3.640000E-8	4.331353E-2
3.645000E-8	4.373834E-2
3.650000E-8	4.401584E-2
3.655000E-8	4.406380E-2
3.660000E-8	4.391991E-2
3.665000E-8	4.363899E-2
3.670000E-8	4.317992E-2
3.675000E-8	4.254956E-2
3.680000E-8	4.182327E-2
3.685000E-8	4.097365E-2
3.690000E-8	3.997329E-2
3.695000E-8	3.889756E-2
3.700000E-8	3.778072E-2
3.705000E-8	3.658851E-2
3.710000E-8	3.534833E-2
3.715000E-8	3.409788E-2
3.720000E-8	3.285429E-2
3.725000E-8	3.162439E-2
3.730000E-8	3.041505E-2
3.735000E-8	2.923997E-2
3.740000E-8	2.811628E-2
3.745000E-8	2.706111E-2
3.750000E-8	2.609500E-2
3.755000E-8	2.522140E-2
3.760000E-8	2.447456E-2
3.765000E-8	2.385790E-2
3.770000E-8	2.336457E-2
3.775000E-8	2.302198E-2
3.780000E-8	2.282328E-2
3.785000E-8	2.279587E-2
3.790000E-8	2.293633E-2
3.795000E-8	2.321041E-2
3.800000E-8	2.363522E-2
3.805000E-8	2.422789E-2
3.810000E-8	2.493363E-2
3.815000E-8	2.572843E-2
3.820000E-8	2.665000E-2
3.825000E-8	2.767434E-2
3.830000E-8	2.872951E-2
3.835000E-8	2.984635E-2
3.840000E-8	3.101801E-2
3.845000E-8	3.216911E-2
3.850000E-8	3.328937E-2
3.855000E-8	3.440279E-2
3.860000E-8	3.546824E-2
3.865000E-8	3.645832E-2
3.870000E-8	3.736276E-2
3.875000E-8	3.818497E-2
3.880000E-8	3.891469E-2
3.885000E-8	3.957588E-2
3.890000E-8	4.013430E-2
3.895000E-8	4.055226E-2
3.900000E-8	4.084004E-2
3.905000E-8	4.101476E-2
3.910000E-8	4.101818E-2
3.915000E-8	4.086402E-2
3.920000E-8	4.060708E-2
3.925000E-8	4.020967E-2
3.930000E-8	3.962042E-2
3.935000E-8	3.892496E-2
3.940000E-8	3.815756E-2
3.945000E-8	3.724970E-2
3.950000E-8	3.622194E-2
3.955000E-8	3.515991E-2
3.960000E-8	3.404307E-2
3.965000E-8	3.286114E-2
3.970000E-8	3.167921E-2
3.975000E-8	3.051098E-2
3.980000E-8	2.933247E-2
3.985000E-8	2.818822E-2
3.990000E-8	2.711249E-2
3.995000E-8	2.610186E-2
4.000000E-8	2.517687E-2
4.005000E-8	2.434780E-2
4.010000E-8	2.364549E-2
4.015000E-8	2.306652E-2
4.020000E-8	2.260402E-2
4.025000E-8	2.228542E-2
4.030000E-8	2.213468E-2
4.035000E-8	2.214153E-2
4.040000E-8	2.225801E-2
4.045000E-8	2.248754E-2
4.050000E-8	2.284726E-2
4.055000E-8	2.333716E-2
4.060000E-8	2.392642E-2
4.065000E-8	2.462187E-2
4.070000E-8	2.542696E-2
4.075000E-8	2.632111E-2
4.080000E-8	2.728379E-2
4.085000E-8	2.831498E-2
4.090000E-8	2.939071E-2
4.095000E-8	3.051098E-2
4.100000E-8	3.164152E-2
4.105000E-8	3.273095E-2
4.110000E-8	3.379298E-2
4.115000E-8	3.483102E-2
4.120000E-8	3.579027E-2
4.125000E-8	3.662277E-2
4.130000E-8	3.739016E-2
4.135000E-8	3.807877E-2
4.140000E-8	3.862348E-2
4.145000E-8	3.902089E-2
4.150000E-8	3.930181E-2
4.155000E-8	3.945255E-2
4.160000E-8	3.946968E-2
4.165000E-8	3.936690E-2
4.170000E-8	3.911339E-2
4.175000E-8	3.869543E-2
4.180000E-8	3.816784E-2
4.185000E-8	3.755461E-2
4.190000E-8	3.682489E-2
4.195000E-8	3.597185E-2
4.200000E-8	3.504000E-2
4.205000E-8	3.404307E-2
4.210000E-8	3.298104E-2
4.215000E-8	3.188819E-2
4.220000E-8	3.078847E-2
4.225000E-8	2.965450E-2
4.230000E-8	2.852739E-2
4.235000E-8	2.745851E-2
4.240000E-8	2.644445E-2
4.245000E-8	2.547492E-2
4.250000E-8	2.456706E-2
4.255000E-8	2.376540E-2
4.260000E-8	2.309735E-2
4.265000E-8	2.254578E-2
4.270000E-8	2.211412E-2
4.275000E-8	2.181264E-2
4.280000E-8	2.164477E-2
4.285000E-8	2.158996E-2
4.290000E-8	2.166533E-2
4.295000E-8	2.186403E-2
4.300000E-8	2.217579E-2
4.305000E-8	2.260402E-2
4.310000E-8	2.315217E-2
4.315000E-8	2.378595E-2
4.320000E-8	2.449854E-2
4.325000E-8	2.532075E-2
4.330000E-8	2.623889E-2
4.335000E-8	2.719472E-2
4.340000E-8	2.815739E-2
4.345000E-8	2.914405E-2
4.350000E-8	3.015126E-2
4.355000E-8	3.113449E-2
4.360000E-8	3.210402E-2
4.365000E-8	3.303928E-2
4.370000E-8	3.388890E-2
4.375000E-8	3.464945E-2
4.380000E-8	3.534833E-2
4.385000E-8	3.597527E-2
4.390000E-8	3.650971E-2
4.395000E-8	3.694137E-2
4.400000E-8	3.725313E-2
4.405000E-8	3.742442E-2
4.410000E-8	3.747924E-2
4.415000E-8	3.741757E-2
4.420000E-8	3.720174E-2
4.425000E-8	3.681462E-2
4.430000E-8	3.629388E-2
4.435000E-8	3.566694E-2
4.440000E-8	3.492352E-2
4.445000E-8	3.407048E-2
4.450000E-8	3.315576E-2
4.455000E-8	3.222050E-2
4.460000E-8	3.126125E-2
4.465000E-8	3.026089E-2
4.470000E-8	2.926738E-2
4.475000E-8	2.831841E-2
4.480000E-8	2.740712E-2
4.485000E-8	2.654037E-2
4.490000E-8	2.572843E-2
4.495000E-8	2.494733E-2
4.500000E-8	2.417651E-2
4.505000E-8	2.346392E-2
4.510000E-8	2.283013E-2
4.515000E-8	2.225458E-2
4.520000E-8	2.175098E-2
4.525000E-8	2.137070E-2
4.530000E-8	2.110348E-2
4.535000E-8	2.095274E-2
4.540000E-8	2.095960E-2
4.545000E-8	2.111033E-2
4.550000E-8	2.137413E-2
4.555000E-8	2.176125E-2
4.560000E-8	2.228542E-2
4.565000E-8	2.291578E-2
4.570000E-8	2.364549E-2
4.575000E-8	2.445400E-2
4.580000E-8	2.530705E-2
4.585000E-8	2.619436E-2
4.590000E-8	2.712620E-2
4.595000E-8	2.805461E-2
4.600000E-8	2.895905E-2
4.605000E-8	2.984635E-2
4.610000E-8	3.072681E-2
4.615000E-8	3.155587E-2
4.620000E-8	3.233355E-2
4.625000E-8	3.305984E-2
4.630000E-8	3.370391E-2
4.635000E-8	3.427260E-2
4.640000E-8	3.475566E-2
4.645000E-8	3.511195E-2
4.650000E-8	3.535519E-2
4.655000E-8	3.550935E-2
4.660000E-8	3.556074E-2
4.665000E-8	3.549565E-2
4.670000E-8	3.532778E-2
4.675000E-8	3.507084E-2
4.680000E-8	3.470427E-2
4.685000E-8	3.423149E-2
4.690000E-8	3.366622E-2
4.695000E-8	3.299475E-2
4.700000E-8	3.223420E-2
4.705000E-8	3.142569E-2
4.710000E-8	3.057264E-2
4.715000E-8	2.965793E-2
4.720000E-8	2.872266E-2
4.725000E-8	2.777712E-2
4.730000E-8	2.680074E-2
4.735000E-8	2.583464E-2
4.740000E-8	2.492335E-2
4.745000E-8	2.405317E-2
4.750000E-8	2.322753E-2
4.755000E-8	2.250467E-2
4.760000E-8	2.189486E-2
4.765000E-8	2.135700E-2
4.770000E-8	2.091506E-2
4.775000E-8	2.057932E-2
4.780000E-8	2.035664E-2
4.785000E-8	2.025044E-2
4.790000E-8	2.026414E-2
4.795000E-8	2.039432E-2
4.800000E-8	2.063414E-2
4.805000E-8	2.098700E-2
4.810000E-8	2.144265E-2
4.815000E-8	2.197708E-2
4.820000E-8	2.258347E-2
4.825000E-8	2.327550E-2
4.830000E-8	2.404632E-2
4.835000E-8	2.483770E-2
4.840000E-8	2.562223E-2
4.845000E-8	2.645472E-2
4.850000E-8	2.730434E-2
4.855000E-8	2.810943E-2
4.860000E-8	2.890766E-2
4.865000E-8	2.970589E-2
4.870000E-8	3.044246E-2
4.875000E-8	3.111736E-2
4.880000E-8	3.176828E-2
4.885000E-8	3.235068E-2
4.890000E-8	3.283373E-2
4.895000E-8	3.322428E-2
4.900000E-8	3.351891E-2
4.905000E-8	3.370733E-2
4.910000E-8	3.378270E-2
4.915000E-8	3.373817E-2
4.920000E-8	3.357030E-2
4.925000E-8	3.329280E-2
4.930000E-8	3.290910E-2
4.935000E-8	3.243975E-2
4.940000E-8	3.189846E-2
4.945000E-8	3.128523E-2
4.950000E-8	3.063774E-2
4.955000E-8	2.995598E-2
4.960000E-8	2.923312E-2
4.965000E-8	2.848628E-2
4.970000E-8	2.772573E-2
4.975000E-8	2.695490E-2
4.980000E-8	2.618750E-2
4.985000E-8	2.543038E-2
4.990000E-8	2.467669E-2
4.995000E-8	2.391271E-2
5.000000E-8	2.320013E-2
5.005000E-8	2.255263E-2
5.010000E-8	2.194625E-2
5.015000E-8	2.140154E-2
5.020000E-8	2.095274E-2
5.025000E-8	2.058617E-2
5.030000E-8	2.031895E-2
5.035000E-8	2.016822E-2
5.040000E-8	2.012025E-2
5.045000E-8	2.015451E-2
5.050000E-8	2.030525E-2
5.055000E-8	2.057932E-2
5.060000E-8	2.092534E-2
5.065000E-8	2.135357E-2
5.070000E-8	2.189486E-2
5.075000E-8	2.252865E-2
5.080000E-8	2.323439E-2
5.085000E-8	2.399151E-2
5.090000E-8	2.477946E-2
5.095000E-8	2.560168E-2
5.100000E-8	2.646500E-2
5.105000E-8	2.731805E-2
5.110000E-8	2.815054E-2
5.115000E-8	2.897960E-2
5.120000E-8	2.974015E-2
5.125000E-8	3.039792E-2
5.130000E-8	3.100088E-2
5.135000E-8	3.154902E-2
5.140000E-8	3.198411E-2
5.145000E-8	3.233355E-2
5.150000E-8	3.263160E-2
5.155000E-8	3.283373E-2
5.160000E-8	3.291253E-2
5.165000E-8	3.290225E-2
5.170000E-8	3.281318E-2
5.175000E-8	3.262818E-2
5.180000E-8	3.233355E-2
5.185000E-8	3.194300E-2
5.190000E-8	3.145995E-2
5.195000E-8	3.089125E-2
5.200000E-8	3.023005E-2
5.205000E-8	2.949006E-2
5.210000E-8	2.868498E-2
5.215000E-8	2.784906E-2
5.220000E-8	2.701314E-2
5.225000E-8	2.617380E-2
5.230000E-8	2.533788E-2
5.235000E-8	2.451910E-2
5.240000E-8	2.375512E-2
5.245000E-8	2.308365E-2
5.250000E-8	2.247726E-2
5.255000E-8	2.191542E-2
5.260000E-8	2.141524E-2
5.265000E-8	2.100413E-2
5.270000E-8	2.066154E-2
5.275000E-8	2.037034E-2
5.280000E-8	2.014081E-2
5.285000E-8	1.997294E-2
5.290000E-8	1.987016E-2
5.295000E-8	1.982220E-2
5.300000E-8	1.983933E-2
5.305000E-8	1.995238E-2
5.310000E-8	2.016479E-2
5.315000E-8	2.046284E-2
5.320000E-8	2.085339E-2
5.325000E-8	2.134672E-2
5.330000E-8	2.192912E-2
5.335000E-8	2.259032E-2
5.340000E-8	2.330976E-2
5.345000E-8	2.406688E-2
5.350000E-8	2.486168E-2
5.355000E-8	2.567705E-2
5.360000E-8	2.649926E-2
5.365000E-8	2.729064E-2
5.370000E-8	2.802721E-2
5.375000E-8	2.868498E-2
5.380000E-8	2.927423E-2
5.385000E-8	2.978126E-2
5.390000E-8	3.020265E-2
5.395000E-8	3.054181E-2
5.400000E-8	3.078505E-2
5.405000E-8	3.093236E-2
5.410000E-8	3.098718E-2
5.415000E-8	3.097005E-2
5.420000E-8	3.086042E-2
5.425000E-8	3.066514E-2
5.430000E-8	3.040477E-2
5.435000E-8	3.007246E-2
5.440000E-8	2.966478E-2
5.445000E-8	2.920571E-2
5.450000E-8	2.870553E-2
5.455000E-8	2.814369E-2
5.460000E-8	2.752703E-2
5.465000E-8	2.685898E-2
5.470000E-8	2.616010E-2
5.475000E-8	2.545779E-2
5.480000E-8	2.472807E-2
5.485000E-8	2.397438E-2
5.490000E-8	2.326179E-2
5.495000E-8	2.262458E-2
5.500000E-8	2.202162E-2
5.505000E-8	2.145292E-2
5.510000E-8	2.095274E-2
5.515000E-8	2.050053E-2
5.520000E-8	2.011340E-2
5.525000E-8	1.981535E-2
5.530000E-8	1.958239E-2
5.535000E-8	1.940424E-2
5.540000E-8	1.931174E-2
5.545000E-8	1.930489E-2
5.550000E-8	1.935970E-2
5.555000E-8	1.950359E-2
5.560000E-8	1.976053E-2
5.565000E-8	2.008599E-2
5.570000E-8	2.047655E-2
5.575000E-8	2.097330E-2
5.580000E-8	2.154200E-2
5.585000E-8	2.215181E-2
5.590000E-8	2.282671E-2
5.595000E-8	2.354614E-2
5.600000E-8	2.427243E-2
5.605000E-8	2.498844E-2
5.610000E-8	2.567019E-2
5.615000E-8	2.632111E-2
5.620000E-8	2.694805E-2
5.625000E-8	2.753730E-2
5.630000E-8	2.803748E-2
5.635000E-8	2.847600E-2
5.640000E-8	2.886312E-2
5.645000E-8	2.916118E-2
5.650000E-8	2.938043E-2
5.655000E-8	2.953117E-2
5.660000E-8	2.958941E-2
5.665000E-8	2.957228E-2
5.670000E-8	2.951747E-2
5.675000E-8	2.938043E-2
5.680000E-8	2.914062E-2
5.685000E-8	2.883572E-2
5.690000E-8	2.846572E-2
5.695000E-8	2.802378E-2
5.700000E-8	2.754073E-2
5.705000E-8	2.702685E-2
5.710000E-8	2.645130E-2
5.715000E-8	2.581751E-2
5.720000E-8	2.518029E-2
5.725000E-8	2.453280E-2
5.730000E-8	2.387845E-2
5.735000E-8	2.323781E-2
5.740000E-8	2.261430E-2
5.745000E-8	2.198736E-2
5.750000E-8	2.137755E-2
5.755000E-8	2.082599E-2
5.760000E-8	2.032581E-2
5.765000E-8	1.987701E-2
5.770000E-8	1.949674E-2
5.775000E-8	1.919869E-2
5.780000E-8	1.895888E-2
5.785000E-8	1.881156E-2
5.790000E-8	1.878758E-2
5.795000E-8	1.885267E-2
5.800000E-8	1.896573E-2
5.805000E-8	1.916100E-2
5.810000E-8	1.946591E-2
5.815000E-8	1.981535E-2
5.820000E-8	2.020247E-2
5.825000E-8	2.066154E-2
5.830000E-8	2.116172E-2
5.835000E-8	2.165505E-2
5.840000E-8	2.216893E-2
5.845000E-8	2.271023E-2
5.850000E-8	2.323096E-2
5.855000E-8	2.372771E-2
5.860000E-8	2.424160E-2
5.865000E-8	2.473493E-2
5.870000E-8	2.521798E-2
5.875000E-8	2.569760E-2
5.880000E-8	2.615667E-2
5.885000E-8	2.657463E-2
5.890000E-8	2.695148E-2
5.895000E-8	2.728379E-2
5.900000E-8	2.755443E-2
5.905000E-8	2.775314E-2
5.910000E-8	2.787304E-2
5.915000E-8	2.791415E-2
5.920000E-8	2.786619E-2
5.925000E-8	2.774286E-2
5.930000E-8	2.755786E-2
5.935000E-8	2.730434E-2
5.940000E-8	2.696518E-2
5.945000E-8	2.657120E-2
5.950000E-8	2.618065E-2
5.955000E-8	2.576612E-2
5.960000E-8	2.527622E-2
5.965000E-8	2.475548E-2
5.970000E-8	2.426901E-2
5.975000E-8	2.377225E-2
5.980000E-8	2.321726E-2
5.985000E-8	2.264513E-2
5.990000E-8	2.211069E-2
5.995000E-8	2.158311E-2
6.000000E-8	2.103839E-2
6.005000E-8	2.052451E-2
6.010000E-8	2.009627E-2
6.015000E-8	1.971942E-2
6.020000E-8	1.939739E-2
6.025000E-8	1.915073E-2
6.030000E-8	1.898628E-2
6.035000E-8	1.890064E-2
6.040000E-8	1.889378E-2
6.045000E-8	1.895545E-2
6.050000E-8	1.906508E-2
6.055000E-8	1.920554E-2
6.060000E-8	1.939054E-2
6.065000E-8	1.961322E-2
6.070000E-8	1.986674E-2
6.075000E-8	2.015451E-2
6.080000E-8	2.045942E-2
6.085000E-8	2.078145E-2
6.090000E-8	2.114117E-2
6.095000E-8	2.153857E-2
6.100000E-8	2.195653E-2
6.105000E-8	2.239847E-2
6.110000E-8	2.288495E-2
6.115000E-8	2.336800E-2
6.120000E-8	2.383734E-2
6.125000E-8	2.431354E-2
6.130000E-8	2.477261E-2
6.135000E-8	2.517344E-2
6.140000E-8	2.552631E-2
6.145000E-8	2.582779E-2
6.150000E-8	2.606417E-2
6.155000E-8	2.625945E-2
6.160000E-8	2.639648E-2
6.165000E-8	2.645815E-2
6.170000E-8	2.645130E-2
6.175000E-8	2.637935E-2
6.180000E-8	2.626973E-2
6.185000E-8	2.612241E-2
6.190000E-8	2.589630E-2
6.195000E-8	2.559825E-2
6.200000E-8	2.526937E-2
6.205000E-8	2.493020E-2
6.210000E-8	2.453280E-2
6.215000E-8	2.407716E-2
6.220000E-8	2.359411E-2
6.225000E-8	2.310420E-2
6.230000E-8	2.258347E-2
6.235000E-8	2.203190E-2
6.240000E-8	2.147348E-2
6.245000E-8	2.091506E-2
6.250000E-8	2.036692E-2
6.255000E-8	1.982563E-2
6.260000E-8	1.931174E-2
6.265000E-8	1.883897E-2
6.270000E-8	1.842444E-2
6.275000E-8	1.809555E-2
6.280000E-8	1.784889E-2
6.285000E-8	1.766732E-2
6.290000E-8	1.757824E-2
6.295000E-8	1.757482E-2
6.300000E-8	1.764333E-2
6.305000E-8	1.778722E-2
6.310000E-8	1.799963E-2
6.315000E-8	1.826685E-2
6.320000E-8	1.858888E-2
6.325000E-8	1.897601E-2
6.330000E-8	1.941109E-2
6.335000E-8	1.987701E-2
6.340000E-8	2.039090E-2
6.345000E-8	2.095617E-2
6.350000E-8	2.152144E-2
6.355000E-8	2.207986E-2
6.360000E-8	2.264171E-2
6.365000E-8	2.317272E-2
6.370000E-8	2.365235E-2
6.375000E-8	2.411827E-2
6.380000E-8	2.452937E-2
6.385000E-8	2.483770E-2
6.390000E-8	2.506724E-2
6.395000E-8	2.525224E-2
6.400000E-8	2.537214E-2
6.405000E-8	2.542696E-2
6.410000E-8	2.545094E-2
6.415000E-8	2.543381E-2
6.420000E-8	2.537557E-2
6.425000E-8	2.528992E-2
6.430000E-8	2.513233E-2
6.435000E-8	2.490622E-2
6.440000E-8	2.466983E-2
6.445000E-8	2.442317E-2
6.450000E-8	2.412512E-2
6.455000E-8	2.378938E-2
6.460000E-8	2.345022E-2
6.465000E-8	2.308365E-2
6.470000E-8	2.268282E-2
6.475000E-8	2.227514E-2
6.480000E-8	2.187088E-2
6.485000E-8	2.146320E-2
6.490000E-8	2.105895E-2
6.495000E-8	2.066154E-2
6.500000E-8	2.026071E-2
6.505000E-8	1.987359E-2
6.510000E-8	1.951730E-2
6.515000E-8	1.919184E-2
6.520000E-8	1.890064E-2
6.525000E-8	1.866082E-2
6.530000E-8	1.846897E-2
6.535000E-8	1.830796E-2
6.540000E-8	1.817777E-2
6.545000E-8	1.809213E-2
6.550000E-8	1.805444E-2
6.555000E-8	1.805101E-2
6.560000E-8	1.808870E-2
6.565000E-8	1.817777E-2
6.570000E-8	1.833194E-2
6.575000E-8	1.852379E-2
6.580000E-8	1.875675E-2
6.585000E-8	1.905480E-2
6.590000E-8	1.938711E-2
6.595000E-8	1.974340E-2
6.600000E-8	2.014081E-2
6.605000E-8	2.058275E-2
6.610000E-8	2.104524E-2
6.615000E-8	2.148718E-2
6.620000E-8	2.189829E-2
6.625000E-8	2.230254E-2
6.630000E-8	2.269652E-2
6.635000E-8	2.302198E-2
6.640000E-8	2.329263E-2
6.645000E-8	2.354957E-2
6.650000E-8	2.376197E-2
6.655000E-8	2.391956E-2
6.660000E-8	2.404290E-2
6.665000E-8	2.412512E-2
6.670000E-8	2.413882E-2
6.675000E-8	2.410456E-2
6.680000E-8	2.403604E-2
6.685000E-8	2.391271E-2
6.690000E-8	2.372086E-2
6.695000E-8	2.349475E-2
6.700000E-8	2.322411E-2
6.705000E-8	2.290550E-2
6.710000E-8	2.254921E-2
6.715000E-8	2.217921E-2
6.720000E-8	2.177496E-2
6.725000E-8	2.135015E-2
6.730000E-8	2.095960E-2
6.735000E-8	2.059645E-2
6.740000E-8	2.022646E-2
6.745000E-8	1.985988E-2
6.750000E-8	1.952757E-2
6.755000E-8	1.919184E-2
6.760000E-8	1.885610E-2
6.765000E-8	1.855119E-2
6.770000E-8	1.829083E-2
6.775000E-8	1.805444E-2
6.780000E-8	1.786602E-2
6.785000E-8	1.772898E-2
6.790000E-8	1.762620E-2
6.795000E-8	1.756111E-2
6.800000E-8	1.755426E-2
6.805000E-8	1.760222E-2
6.810000E-8	1.767074E-2
6.815000E-8	1.776667E-2
6.820000E-8	1.791398E-2
6.825000E-8	1.811953E-2
6.830000E-8	1.832851E-2
6.835000E-8	1.854434E-2
6.840000E-8	1.879786E-2
6.845000E-8	1.909249E-2
6.850000E-8	1.941452E-2
6.855000E-8	1.976053E-2
6.860000E-8	2.012710E-2
6.865000E-8	2.049710E-2
6.870000E-8	2.084312E-2
6.875000E-8	2.117200E-2
6.880000E-8	2.150774E-2
6.885000E-8	2.181949E-2
6.890000E-8	2.209357E-2
6.895000E-8	2.235736E-2
6.900000E-8	2.260402E-2
6.905000E-8	2.279245E-2
6.910000E-8	2.293633E-2
6.915000E-8	2.304939E-2
6.920000E-8	2.312818E-2
6.925000E-8	2.316587E-2
6.930000E-8	2.314874E-2
6.935000E-8	2.306994E-2
6.940000E-8	2.296717E-2
6.945000E-8	2.283698E-2
6.950000E-8	2.264171E-2
6.955000E-8	2.239162E-2
6.960000E-8	2.209699E-2
6.965000E-8	2.174070E-2
6.970000E-8	2.135357E-2
6.975000E-8	2.095274E-2
6.980000E-8	2.054849E-2
6.985000E-8	2.013053E-2
6.990000E-8	1.973313E-2
6.995000E-8	1.934943E-2
7.000000E-8	1.897601E-2
7.005000E-8	1.863342E-2
7.010000E-8	1.832851E-2
7.015000E-8	1.805787E-2
7.020000E-8	1.781805E-2
7.025000E-8	1.760908E-2
7.030000E-8	1.744121E-2
7.035000E-8	1.729389E-2
7.040000E-8	1.715686E-2
7.045000E-8	1.704723E-2
7.050000E-8	1.699241E-2
7.055000E-8	1.698214E-2
7.060000E-8	1.700612E-2
7.065000E-8	1.706436E-2
7.070000E-8	1.718084E-2
7.075000E-8	1.734186E-2
7.080000E-8	1.750630E-2
7.085000E-8	1.770157E-2
7.090000E-8	1.796537E-2
7.095000E-8	1.825657E-2
7.100000E-8	1.854092E-2
7.105000E-8	1.884240E-2
7.110000E-8	1.919184E-2
7.115000E-8	1.955498E-2
7.120000E-8	1.989414E-2
7.125000E-8	2.023331E-2
7.130000E-8	2.058275E-2
7.135000E-8	2.089108E-2
7.140000E-8	2.116857E-2
7.145000E-8	2.144950E-2
7.150000E-8	2.169616E-2
7.155000E-8	2.187088E-2
7.160000E-8	2.200792E-2
7.165000E-8	2.212440E-2
7.170000E-8	2.217236E-2
7.175000E-8	2.216208E-2
7.180000E-8	2.211755E-2
7.185000E-8	2.202162E-2
7.190000E-8	2.185718E-2
7.195000E-8	2.165163E-2
7.200000E-8	2.143579E-2
7.205000E-8	2.118913E-2
7.210000E-8	2.089108E-2
7.215000E-8	2.057247E-2
7.220000E-8	2.024016E-2
7.225000E-8	1.987701E-2
7.230000E-8	1.949674E-2
7.235000E-8	1.911989E-2
7.240000E-8	1.873962E-2
7.245000E-8	1.835935E-2
7.250000E-8	1.798935E-2
7.255000E-8	1.763648E-2
7.260000E-8	1.730075E-2
7.265000E-8	1.699584E-2
7.270000E-8	1.674232E-2
7.275000E-8	1.652992E-2
7.280000E-8	1.637233E-2
7.285000E-8	1.627983E-2
7.290000E-8	1.624557E-2
7.295000E-8	1.626270E-2
7.300000E-8	1.633122E-2
7.305000E-8	1.643057E-2
7.310000E-8	1.653677E-2
7.315000E-8	1.666696E-2
7.320000E-8	1.682455E-2
7.325000E-8	1.700269E-2
7.330000E-8	1.716371E-2
7.335000E-8	1.731445E-2
7.340000E-8	1.749259E-2
7.345000E-8	1.769472E-2
7.350000E-8	1.789000E-2
7.355000E-8	1.807500E-2
7.360000E-8	1.829425E-2
7.365000E-8	1.855462E-2
7.370000E-8	1.882869E-2
7.375000E-8	1.910619E-2
7.380000E-8	1.942137E-2
7.385000E-8	1.973998E-2
7.390000E-8	2.002090E-2
7.395000E-8	2.028127E-2
7.400000E-8	2.052793E-2
7.405000E-8	2.072664E-2
7.410000E-8	2.088423E-2
7.415000E-8	2.099728E-2
7.420000E-8	2.103497E-2
7.425000E-8	2.102811E-2
7.430000E-8	2.100413E-2
7.435000E-8	2.094247E-2
7.440000E-8	2.080543E-2
7.445000E-8	2.064784E-2
7.450000E-8	2.050395E-2
7.455000E-8	2.032581E-2
7.460000E-8	2.012368E-2
7.465000E-8	1.994211E-2
7.470000E-8	1.976053E-2
7.475000E-8	1.954813E-2
7.480000E-8	1.933230E-2
7.485000E-8	1.911304E-2
7.490000E-8	1.888008E-2
7.495000E-8	1.863342E-2
7.500000E-8	1.836620E-2
7.505000E-8	1.810926E-2
7.510000E-8	1.786944E-2
7.515000E-8	1.762278E-2
7.520000E-8	1.735899E-2
7.525000E-8	1.713630E-2
7.530000E-8	1.695473E-2
7.535000E-8	1.676631E-2
7.540000E-8	1.658816E-2
7.545000E-8	1.646825E-2
7.550000E-8	1.638946E-2
7.555000E-8	1.632779E-2
7.560000E-8	1.631751E-2
7.565000E-8	1.635177E-2
7.570000E-8	1.641344E-2
7.575000E-8	1.653677E-2
7.580000E-8	1.672862E-2
7.585000E-8	1.694445E-2
7.590000E-8	1.717741E-2
7.595000E-8	1.746519E-2
7.600000E-8	1.776667E-2
7.605000E-8	1.802703E-2
7.610000E-8	1.827027E-2
7.615000E-8	1.853407E-2
7.620000E-8	1.877045E-2
7.625000E-8	1.894860E-2
7.630000E-8	1.911647E-2
7.635000E-8	1.927063E-2
7.640000E-8	1.937341E-2
7.645000E-8	1.946248E-2
7.650000E-8	1.953443E-2
7.655000E-8	1.958924E-2
7.660000E-8	1.964063E-2
7.665000E-8	1.970229E-2
7.670000E-8	1.972628E-2
7.675000E-8	1.971942E-2
7.680000E-8	1.971257E-2
7.685000E-8	1.969202E-2
7.690000E-8	1.961665E-2
7.695000E-8	1.950359E-2
7.700000E-8	1.937683E-2
7.705000E-8	1.922952E-2
7.710000E-8	1.905480E-2
7.715000E-8	1.887323E-2
7.720000E-8	1.868480E-2
7.725000E-8	1.848268E-2
7.730000E-8	1.827712E-2
7.735000E-8	1.807500E-2
7.740000E-8	1.789000E-2
7.745000E-8	1.773583E-2
7.750000E-8	1.757824E-2
7.755000E-8	1.739324E-2
7.760000E-8	1.721852E-2
7.765000E-8	1.707464E-2
7.770000E-8	1.692390E-2
7.775000E-8	1.675260E-2
7.780000E-8	1.656418E-2
7.785000E-8	1.639631E-2
7.790000E-8	1.624900E-2
7.795000E-8	1.610854E-2
7.800000E-8	1.596465E-2
7.805000E-8	1.586530E-2
7.810000E-8	1.581391E-2
7.815000E-8	1.578308E-2
7.820000E-8	1.581048E-2
7.825000E-8	1.587900E-2
7.830000E-8	1.596122E-2
7.835000E-8	1.607770E-2
7.840000E-8	1.625585E-2
7.845000E-8	1.645112E-2
7.850000E-8	1.667381E-2
7.855000E-8	1.692047E-2
7.860000E-8	1.713973E-2
7.865000E-8	1.735213E-2
7.870000E-8	1.758509E-2
7.875000E-8	1.780092E-2
7.880000E-8	1.798592E-2
7.885000E-8	1.816407E-2
7.890000E-8	1.833879E-2
7.895000E-8	1.847240E-2
7.900000E-8	1.857175E-2
7.905000E-8	1.866082E-2
7.910000E-8	1.874990E-2
7.915000E-8	1.881156E-2
7.920000E-8	1.883897E-2
7.925000E-8	1.885610E-2
7.930000E-8	1.886295E-2
7.935000E-8	1.884240E-2
7.940000E-8	1.880814E-2
7.945000E-8	1.877730E-2
7.950000E-8	1.874647E-2
7.955000E-8	1.869166E-2
7.960000E-8	1.858888E-2
7.965000E-8	1.845184E-2
7.970000E-8	1.832166E-2
7.975000E-8	1.816407E-2
7.980000E-8	1.796194E-2
7.985000E-8	1.773583E-2
7.990000E-8	1.749945E-2
7.995000E-8	1.725621E-2
8.000000E-8	1.701297E-2
8.005000E-8	1.676288E-2
8.010000E-8	1.651622E-2
8.015000E-8	1.631409E-2
8.020000E-8	1.614965E-2
8.025000E-8	1.599548E-2
8.030000E-8	1.587900E-2
8.035000E-8	1.582076E-2
8.040000E-8	1.580021E-2
8.045000E-8	1.579335E-2
8.050000E-8	1.580363E-2
8.055000E-8	1.583789E-2
8.060000E-8	1.588243E-2
8.065000E-8	1.592696E-2
8.070000E-8	1.596122E-2
8.075000E-8	1.600233E-2
8.080000E-8	1.604002E-2
8.085000E-8	1.605715E-2
8.090000E-8	1.607770E-2
8.095000E-8	1.610511E-2
8.100000E-8	1.613252E-2
8.105000E-8	1.617705E-2
8.110000E-8	1.624900E-2
8.115000E-8	1.635863E-2
8.120000E-8	1.648881E-2
8.125000E-8	1.661557E-2
8.130000E-8	1.676288E-2
8.135000E-8	1.694788E-2
8.140000E-8	1.713973E-2
8.145000E-8	1.733843E-2
8.150000E-8	1.753028E-2
8.155000E-8	1.768444E-2
8.160000E-8	1.781463E-2
8.165000E-8	1.793796E-2
8.170000E-8	1.802018E-2
8.175000E-8	1.805444E-2
8.180000E-8	1.807157E-2
8.185000E-8	1.807500E-2
8.190000E-8	1.804416E-2
8.195000E-8	1.799277E-2
8.200000E-8	1.792083E-2
8.205000E-8	1.782833E-2
8.210000E-8	1.773926E-2
8.215000E-8	1.766046E-2
8.220000E-8	1.755426E-2
8.225000E-8	1.741723E-2
8.230000E-8	1.727676E-2
8.235000E-8	1.711575E-2
8.240000E-8	1.693760E-2
8.245000E-8	1.674575E-2
8.250000E-8	1.655733E-2
8.255000E-8	1.635520E-2
8.260000E-8	1.614965E-2
8.265000E-8	1.597835E-2
8.270000E-8	1.582761E-2
8.275000E-8	1.565974E-2
8.280000E-8	1.551243E-2
8.285000E-8	1.539252E-2
8.290000E-8	1.530688E-2
8.295000E-8	1.524864E-2
8.300000E-8	1.522466E-2
8.305000E-8	1.519725E-2
8.310000E-8	1.519382E-2
8.315000E-8	1.522808E-2
8.320000E-8	1.526919E-2
8.325000E-8	1.530688E-2
8.330000E-8	1.534799E-2
8.335000E-8	1.540280E-2
8.340000E-8	1.546104E-2
8.345000E-8	1.551586E-2
8.350000E-8	1.558095E-2
8.355000E-8	1.565289E-2
8.360000E-8	1.573854E-2
8.365000E-8	1.583789E-2
8.370000E-8	1.596465E-2
8.375000E-8	1.610854E-2
8.380000E-8	1.624557E-2
8.385000E-8	1.637918E-2
8.390000E-8	1.653335E-2
8.395000E-8	1.668408E-2
8.400000E-8	1.679714E-2
8.405000E-8	1.690677E-2
8.410000E-8	1.703010E-2
8.415000E-8	1.712602E-2
8.420000E-8	1.717741E-2
8.425000E-8	1.723565E-2
8.430000E-8	1.728704E-2
8.435000E-8	1.731102E-2
8.440000E-8	1.732815E-2
8.445000E-8	1.734871E-2
8.450000E-8	1.733158E-2
8.455000E-8	1.727676E-2
8.460000E-8	1.719112E-2
8.465000E-8	1.707464E-2
8.470000E-8	1.694788E-2
8.475000E-8	1.681084E-2
8.480000E-8	1.661899E-2
8.485000E-8	1.638603E-2
8.490000E-8	1.617363E-2
8.495000E-8	1.596122E-2
8.500000E-8	1.573511E-2
8.505000E-8	1.551586E-2
8.510000E-8	1.530688E-2
8.515000E-8	1.512530E-2
8.520000E-8	1.497457E-2
8.525000E-8	1.483410E-2
8.530000E-8	1.471420E-2
8.535000E-8	1.464911E-2
8.540000E-8	1.460457E-2
8.545000E-8	1.457031E-2
8.550000E-8	1.457374E-2
8.555000E-8	1.458744E-2
8.560000E-8	1.458401E-2
8.565000E-8	1.462855E-2
8.570000E-8	1.471420E-2
8.575000E-8	1.475531E-2
8.580000E-8	1.478614E-2
8.585000E-8	1.486151E-2
8.590000E-8	1.494031E-2
8.595000E-8	1.502253E-2
8.600000E-8	1.512873E-2
8.605000E-8	1.524864E-2
8.610000E-8	1.534799E-2
8.615000E-8	1.547475E-2
8.620000E-8	1.563234E-2
8.625000E-8	1.577622E-2
8.630000E-8	1.588585E-2
8.635000E-8	1.600576E-2
8.640000E-8	1.612909E-2
8.645000E-8	1.621474E-2
8.650000E-8	1.626613E-2
8.655000E-8	1.632094E-2
8.660000E-8	1.637575E-2
8.665000E-8	1.640316E-2
8.670000E-8	1.644085E-2
8.675000E-8	1.648538E-2
8.680000E-8	1.651279E-2
8.685000E-8	1.652649E-2
8.690000E-8	1.653335E-2
8.695000E-8	1.654020E-2
8.700000E-8	1.653335E-2
8.705000E-8	1.650936E-2
8.710000E-8	1.646483E-2
8.715000E-8	1.639288E-2
8.720000E-8	1.631066E-2
8.725000E-8	1.622502E-2
8.730000E-8	1.613937E-2
8.735000E-8	1.602631E-2
8.740000E-8	1.591326E-2
8.745000E-8	1.581733E-2
8.750000E-8	1.572484E-2
8.755000E-8	1.562548E-2
8.760000E-8	1.552613E-2
8.765000E-8	1.543363E-2
8.770000E-8	1.532058E-2
8.775000E-8	1.520410E-2
8.780000E-8	1.511503E-2
8.785000E-8	1.501225E-2
8.790000E-8	1.486494E-2
8.795000E-8	1.472790E-2
8.800000E-8	1.462512E-2
8.805000E-8	1.453605E-2
8.810000E-8	1.443327E-2
8.815000E-8	1.436476E-2
8.820000E-8	1.433050E-2
8.825000E-8	1.430652E-2
8.830000E-8	1.429624E-2
8.835000E-8	1.431679E-2
8.840000E-8	1.433050E-2
8.845000E-8	1.435448E-2
8.850000E-8	1.440244E-2
8.855000E-8	1.446068E-2
8.860000E-8	1.453605E-2
8.865000E-8	1.466966E-2
8.870000E-8	1.481355E-2
8.875000E-8	1.494031E-2
8.880000E-8	1.507049E-2
8.885000E-8	1.521095E-2
8.890000E-8	1.535484E-2
8.895000E-8	1.549530E-2
8.900000E-8	1.562891E-2
8.905000E-8	1.576937E-2
8.910000E-8	1.590641E-2
8.915000E-8	1.601946E-2
8.920000E-8	1.612224E-2
8.925000E-8	1.621131E-2
8.930000E-8	1.625585E-2
8.935000E-8	1.627640E-2
8.940000E-8	1.629353E-2
8.945000E-8	1.628668E-2
8.950000E-8	1.623872E-2
8.955000E-8	1.617363E-2
8.960000E-8	1.610854E-2
8.965000E-8	1.600233E-2
8.970000E-8	1.586187E-2
8.975000E-8	1.574197E-2
8.980000E-8	1.562548E-2
8.985000E-8	1.548845E-2
8.990000E-8	1.533086E-2
8.995000E-8	1.518012E-2
9.000000E-8	1.504994E-2
9.005000E-8	1.492660E-2
9.010000E-8	1.479985E-2
9.015000E-8	1.467651E-2
9.020000E-8	1.454976E-2
9.025000E-8	1.443670E-2
9.030000E-8	1.432022E-2
9.035000E-8	1.417291E-2
9.040000E-8	1.403930E-2
9.045000E-8	1.392967E-2
9.050000E-8	1.379949E-2
9.055000E-8	1.367958E-2
9.060000E-8	1.359393E-2
9.065000E-8	1.352541E-2
9.070000E-8	1.347060E-2
9.075000E-8	1.345347E-2
9.080000E-8	1.348430E-2
9.085000E-8	1.352199E-2
9.090000E-8	1.356995E-2
9.095000E-8	1.363847E-2
9.100000E-8	1.373097E-2
9.105000E-8	1.382347E-2
9.110000E-8	1.393995E-2
9.115000E-8	1.406670E-2
9.120000E-8	1.418661E-2
9.125000E-8	1.429281E-2
9.130000E-8	1.440929E-2
9.135000E-8	1.454290E-2
9.140000E-8	1.466624E-2
9.145000E-8	1.478272E-2
9.150000E-8	1.491975E-2
9.155000E-8	1.504308E-2
9.160000E-8	1.513901E-2
9.165000E-8	1.524179E-2
9.170000E-8	1.534799E-2
9.175000E-8	1.542678E-2
9.180000E-8	1.549188E-2
9.185000E-8	1.552613E-2
9.190000E-8	1.553641E-2
9.195000E-8	1.554669E-2
9.200000E-8	1.554669E-2
9.205000E-8	1.550215E-2
9.210000E-8	1.542678E-2
9.215000E-8	1.535484E-2
9.220000E-8	1.527604E-2
9.225000E-8	1.516984E-2
9.230000E-8	1.505679E-2
9.235000E-8	1.495058E-2
9.240000E-8	1.483068E-2
9.245000E-8	1.470735E-2
9.250000E-8	1.458744E-2
9.255000E-8	1.447781E-2
9.260000E-8	1.437503E-2
9.265000E-8	1.426541E-2
9.270000E-8	1.413522E-2
9.275000E-8	1.402559E-2
9.280000E-8	1.393310E-2
9.285000E-8	1.383032E-2
9.290000E-8	1.372412E-2
9.295000E-8	1.363847E-2
9.300000E-8	1.358023E-2
9.305000E-8	1.351514E-2
9.310000E-8	1.345004E-2
9.315000E-8	1.341236E-2
9.320000E-8	1.340893E-2
9.325000E-8	1.342949E-2
9.330000E-8	1.344662E-2
9.335000E-8	1.348773E-2
9.340000E-8	1.358708E-2
9.345000E-8	1.367958E-2
9.350000E-8	1.373782E-2
9.355000E-8	1.381661E-2
9.360000E-8	1.392282E-2
9.365000E-8	1.401874E-2
9.370000E-8	1.412152E-2
9.375000E-8	1.422087E-2
9.380000E-8	1.429281E-2
9.385000E-8	1.436476E-2
9.390000E-8	1.445726E-2
9.395000E-8	1.452920E-2
9.400000E-8	1.456346E-2
9.405000E-8	1.456688E-2
9.410000E-8	1.453948E-2
9.415000E-8	1.451892E-2
9.420000E-8	1.449837E-2
9.425000E-8	1.442642E-2
9.430000E-8	1.434420E-2
9.435000E-8	1.430652E-2
9.440000E-8	1.427226E-2
9.445000E-8	1.421402E-2
9.450000E-8	1.414893E-2
9.455000E-8	1.409754E-2
9.460000E-8	1.407698E-2
9.465000E-8	1.411467E-2
9.470000E-8	1.415920E-2
9.475000E-8	1.415920E-2
9.480000E-8	1.414207E-2
9.485000E-8	1.415920E-2
9.490000E-8	1.414893E-2
9.495000E-8	1.413180E-2
9.500000E-8	1.413180E-2
9.505000E-8	1.408383E-2
9.510000E-8	1.397421E-2
9.515000E-8	1.390226E-2
9.520000E-8	1.383717E-2
9.525000E-8	1.372412E-2
9.530000E-8	1.361791E-2
9.535000E-8	1.354597E-2
9.540000E-8	1.346375E-2
9.545000E-8	1.339180E-2
9.550000E-8	1.337125E-2
9.555000E-8	1.336440E-2
9.560000E-8	1.334384E-2
9.565000E-8	1.335069E-2
9.570000E-8	1.337125E-2
9.575000E-8	1.339180E-2
9.580000E-8	1.341921E-2
9.585000E-8	1.343634E-2
9.590000E-8	1.342949E-2
9.595000E-8	1.340208E-2
9.600000E-8	1.335755E-2
9.605000E-8	1.331643E-2
9.610000E-8	1.329588E-2
9.615000E-8	1.328903E-2
9.620000E-8	1.329588E-2
9.625000E-8	1.332671E-2
9.630000E-8	1.339523E-2
9.635000E-8	1.348773E-2
9.640000E-8	1.360764E-2
9.645000E-8	1.376180E-2
9.650000E-8	1.390911E-2
9.655000E-8	1.404272E-2
9.660000E-8	1.415920E-2
9.665000E-8	1.427226E-2
9.670000E-8	1.435791E-2
9.675000E-8	1.440587E-2
9.680000E-8	1.442642E-2
9.685000E-8	1.440587E-2
9.690000E-8	1.435448E-2
9.695000E-8	1.428596E-2
9.700000E-8	1.421744E-2
9.705000E-8	1.414893E-2
9.710000E-8	1.408041E-2
9.715000E-8	1.401189E-2
9.720000E-8	1.395365E-2
9.725000E-8	1.389884E-2
9.730000E-8	1.383717E-2
9.735000E-8	1.377893E-2
9.740000E-8	1.372754E-2
9.745000E-8	1.367615E-2
9.750000E-8	1.361791E-2
9.755000E-8	1.356652E-2
9.760000E-8	1.351171E-2
9.765000E-8	1.343977E-2
9.770000E-8	1.337810E-2
9.775000E-8	1.330273E-2
9.780000E-8	1.318968E-2
9.785000E-8	1.309033E-2
9.790000E-8	1.300125E-2
9.795000E-8	1.288477E-2
9.800000E-8	1.273061E-2
9.805000E-8	1.258329E-2
9.810000E-8	1.247367E-2
9.815000E-8	1.239144E-2
9.820000E-8	1.234006E-2
9.825000E-8	1.232635E-2
9.830000E-8	1.234691E-2
9.835000E-8	1.239487E-2
9.840000E-8	1.250107E-2
9.845000E-8	1.264496E-2
9.850000E-8	1.278200E-2
9.855000E-8	1.292246E-2
9.860000E-8	1.306977E-2
9.865000E-8	1.320681E-2
9.870000E-8	1.333014E-2
9.875000E-8	1.343977E-2
9.880000E-8	1.350828E-2
9.885000E-8	1.354254E-2
9.890000E-8	1.354597E-2
9.895000E-8	1.353569E-2
9.900000E-8	1.350828E-2
9.905000E-8	1.346717E-2
9.910000E-8	1.342606E-2
9.915000E-8	1.340208E-2
9.920000E-8	1.338153E-2
9.925000E-8	1.333699E-2
9.930000E-8	1.331643E-2
9.935000E-8	1.334384E-2
9.940000E-8	1.337467E-2
9.945000E-8	1.341236E-2
9.950000E-8	1.346717E-2
9.955000E-8	1.351514E-2
9.960000E-8	1.356310E-2
9.965000E-8	1.361106E-2
9.970000E-8	1.362134E-2
9.975000E-8	1.360764E-2
9.980000E-8	1.358023E-2
9.985000E-8	1.350486E-2
9.990000E-8	1.340208E-2
9.995000E-8	1.330273E-2
1.000000E-7	1.320338E-2
1.000500E-7	1.306977E-2
1.001000E-7	1.290533E-2
1.001500E-7	1.276144E-2
1.002000E-7	1.266894E-2
1.002500E-7	1.258329E-2
1.003000E-7	1.249080E-2
1.003500E-7	1.244968E-2
1.004000E-7	1.243598E-2
1.004500E-7	1.240172E-2
1.005000E-7	1.237774E-2
1.005500E-7	1.238802E-2
1.006000E-7	1.238459E-2
1.006500E-7	1.235033E-2
1.007000E-7	1.232293E-2
1.007500E-7	1.230922E-2
1.008000E-7	1.229895E-2
1.008500E-7	1.230237E-2
1.009000E-7	1.231607E-2
1.009500E-7	1.231265E-2
1.010000E-7	1.231607E-2
1.010500E-7	1.236061E-2
1.011000E-7	1.243256E-2
1.011500E-7	1.250450E-2
1.012000E-7	1.260728E-2
1.012500E-7	1.269977E-2
1.013000E-7	1.274774E-2
1.013500E-7	1.278885E-2
1.014000E-7	1.284709E-2
1.014500E-7	1.287792E-2
1.015000E-7	1.288820E-2
1.015500E-7	1.289162E-2
1.016000E-7	1.286422E-2
1.016500E-7	1.284366E-2
1.017000E-7	1.283681E-2
1.017500E-7	1.281625E-2
1.018000E-7	1.280255E-2
1.018500E-7	1.282311E-2
1.019000E-7	1.285737E-2
1.019500E-7	1.287792E-2
1.020000E-7	1.289505E-2
1.020500E-7	1.292931E-2
1.021000E-7	1.293616E-2
1.021500E-7	1.292246E-2
1.022000E-7	1.289505E-2
1.022500E-7	1.284709E-2
1.023000E-7	1.278542E-2
1.023500E-7	1.270320E-2
1.024000E-7	1.263468E-2
1.024500E-7	1.258329E-2
1.025000E-7	1.253533E-2
1.025500E-7	1.248737E-2
1.026000E-7	1.245311E-2
1.026500E-7	1.242913E-2
1.027000E-7	1.240515E-2
1.027500E-7	1.235033E-2
1.028000E-7	1.226469E-2
1.028500E-7	1.217904E-2
1.029000E-7	1.209339E-2
1.029500E-7	1.198034E-2
1.030000E-7	1.185701E-2
1.030500E-7	1.174395E-2
1.031000E-7	1.165488E-2
1.031500E-7	1.159321E-2
1.032000E-7	1.156238E-2
1.032500E-7	1.156238E-2
1.033000E-7	1.160692E-2
1.033500E-7	1.165830E-2
1.034000E-7	1.170969E-2
1.034500E-7	1.181247E-2
1.035000E-7	1.194265E-2
1.035500E-7	1.203173E-2
1.036000E-7	1.210024E-2
1.036500E-7	1.217219E-2
1.037000E-7	1.222015E-2
1.037500E-7	1.223043E-2
1.038000E-7	1.224071E-2
1.038500E-7	1.225098E-2
1.039000E-7	1.223728E-2
1.039500E-7	1.220987E-2
1.040000E-7	1.219617E-2
1.040500E-7	1.218247E-2
1.041000E-7	1.216534E-2
1.041500E-7	1.216191E-2
1.042000E-7	1.217219E-2
1.042500E-7	1.218932E-2
1.043000E-7	1.222700E-2
1.043500E-7	1.227496E-2
1.044000E-7	1.231265E-2
1.044500E-7	1.236404E-2
1.045000E-7	1.241885E-2
1.045500E-7	1.244968E-2
1.046000E-7	1.245996E-2
1.046500E-7	1.245654E-2
1.047000E-7	1.241885E-2
1.047500E-7	1.235376E-2
1.048000E-7	1.228867E-2
1.048500E-7	1.222700E-2
1.049000E-7	1.216534E-2
1.049500E-7	1.210024E-2
1.050000E-7	1.202487E-2
1.050500E-7	1.195978E-2
1.051000E-7	1.192210E-2
1.051500E-7	1.189812E-2
1.052000E-7	1.188441E-2
1.052500E-7	1.188099E-2
1.053000E-7	1.187071E-2
1.053500E-7	1.186386E-2
1.054000E-7	1.186728E-2
1.054500E-7	1.185015E-2
1.055000E-7	1.181932E-2
1.055500E-7	1.180904E-2
1.056000E-7	1.181247E-2
1.056500E-7	1.181589E-2
1.057000E-7	1.182617E-2
1.057500E-7	1.183645E-2
1.058000E-7	1.184673E-2
1.058500E-7	1.188099E-2
1.059000E-7	1.192210E-2
1.059500E-7	1.193580E-2
1.060000E-7	1.193923E-2
1.060500E-7	1.195978E-2
1.061000E-7	1.197691E-2
1.061500E-7	1.195978E-2
1.062000E-7	1.192552E-2
1.062500E-7	1.190154E-2
1.063000E-7	1.189126E-2
1.063500E-7	1.188099E-2
1.064000E-7	1.188441E-2
1.064500E-7	1.189812E-2
1.065000E-7	1.191182E-2
1.065500E-7	1.192895E-2
1.066000E-7	1.197006E-2
1.066500E-7	1.202145E-2
1.067000E-7	1.204543E-2
1.067500E-7	1.207284E-2
1.068000E-7	1.211395E-2
1.068500E-7	1.212080E-2
1.069000E-7	1.208997E-2
1.069500E-7	1.208311E-2
1.070000E-7	1.208311E-2
1.070500E-7	1.204200E-2
1.071000E-7	1.195636E-2
1.071500E-7	1.185015E-2
1.072000E-7	1.177821E-2
1.072500E-7	1.176108E-2
1.073000E-7	1.173367E-2
1.073500E-7	1.170284E-2
1.074000E-7	1.169599E-2
1.074500E-7	1.170284E-2
1.075000E-7	1.171312E-2
1.075500E-7	1.171997E-2
1.076000E-7	1.170969E-2
1.076500E-7	1.169256E-2
1.077000E-7	1.167886E-2
1.077500E-7	1.165145E-2
1.078000E-7	1.160006E-2
1.078500E-7	1.153840E-2
1.079000E-7	1.148016E-2
1.079500E-7	1.143905E-2
1.080000E-7	1.140821E-2
1.080500E-7	1.138081E-2
1.081000E-7	1.138423E-2
1.081500E-7	1.142192E-2
1.082000E-7	1.146645E-2
1.082500E-7	1.153155E-2
1.083000E-7	1.160349E-2
1.083500E-7	1.164117E-2
1.084000E-7	1.165488E-2
1.084500E-7	1.165830E-2
1.085000E-7	1.165830E-2
1.085500E-7	1.162405E-2
1.086000E-7	1.155553E-2
1.086500E-7	1.147673E-2
1.087000E-7	1.142192E-2
1.087500E-7	1.137396E-2
1.088000E-7	1.131571E-2
1.088500E-7	1.127460E-2
1.089000E-7	1.125405E-2
1.089500E-7	1.125405E-2
1.090000E-7	1.129516E-2
1.090500E-7	1.136025E-2
1.091000E-7	1.141849E-2
1.091500E-7	1.148016E-2
1.092000E-7	1.153840E-2
1.092500E-7	1.156238E-2
1.093000E-7	1.156580E-2
1.093500E-7	1.157951E-2
1.094000E-7	1.157608E-2
1.094500E-7	1.153840E-2
1.095000E-7	1.150071E-2
1.095500E-7	1.146645E-2
1.096000E-7	1.142877E-2
1.096500E-7	1.138423E-2
1.097000E-7	1.136368E-2
1.097500E-7	1.134997E-2
1.098000E-7	1.133284E-2
1.098500E-7	1.132942E-2
1.099000E-7	1.134312E-2
1.099500E-7	1.134655E-2
1.100000E-7	1.134997E-2
1.100500E-7	1.136025E-2
1.101000E-7	1.134997E-2
1.101500E-7	1.133970E-2
1.102000E-7	1.134312E-2
1.102500E-7	1.132942E-2
1.103000E-7	1.131229E-2
1.103500E-7	1.129173E-2
1.104000E-7	1.125405E-2
1.104500E-7	1.119923E-2
1.105000E-7	1.116498E-2
1.105500E-7	1.113757E-2
1.106000E-7	1.110674E-2
1.106500E-7	1.108275E-2
1.107000E-7	1.105877E-2
1.107500E-7	1.103479E-2
1.108000E-7	1.102451E-2
1.108500E-7	1.102109E-2
1.109000E-7	1.100053E-2
1.109500E-7	1.099368E-2
1.110000E-7	1.102109E-2
1.110500E-7	1.104850E-2
1.111000E-7	1.105535E-2
1.111500E-7	1.109988E-2
1.112000E-7	1.116498E-2
1.112500E-7	1.120609E-2
1.113000E-7	1.123692E-2
1.113500E-7	1.128488E-2
1.114000E-7	1.132257E-2
1.114500E-7	1.132942E-2
1.115000E-7	1.132257E-2
1.115500E-7	1.129173E-2
1.116000E-7	1.124720E-2
1.116500E-7	1.119581E-2
1.117000E-7	1.113072E-2
1.117500E-7	1.106563E-2
1.118000E-7	1.101766E-2
1.118500E-7	1.095942E-2
1.119000E-7	1.090461E-2
1.119500E-7	1.088063E-2
1.120000E-7	1.087720E-2
1.120500E-7	1.088748E-2
1.121000E-7	1.090118E-2
1.121500E-7	1.090803E-2
1.122000E-7	1.092516E-2
1.122500E-7	1.095942E-2
1.123000E-7	1.097655E-2
1.123500E-7	1.096285E-2
1.124000E-7	1.094572E-2
1.124500E-7	1.090803E-2
1.125000E-7	1.086350E-2
1.125500E-7	1.082924E-2
1.126000E-7	1.079155E-2
1.126500E-7	1.076072E-2
1.127000E-7	1.072989E-2
1.127500E-7	1.069563E-2
1.128000E-7	1.064424E-2
1.128500E-7	1.060313E-2
1.129000E-7	1.058257E-2
1.129500E-7	1.054832E-2
1.130000E-7	1.049693E-2
1.130500E-7	1.046952E-2
1.131000E-7	1.046267E-2
1.131500E-7	1.045924E-2
1.132000E-7	1.047980E-2
1.132500E-7	1.052091E-2
1.133000E-7	1.053804E-2
1.133500E-7	1.054832E-2
1.134000E-7	1.061341E-2
1.134500E-7	1.068878E-2
1.135000E-7	1.075729E-2
1.135500E-7	1.084979E-2
1.136000E-7	1.092516E-2
1.136500E-7	1.095600E-2
1.137000E-7	1.100738E-2
1.137500E-7	1.106220E-2
1.138000E-7	1.106220E-2
1.138500E-7	1.106220E-2
1.139000E-7	1.107590E-2
1.139500E-7	1.104507E-2
1.140000E-7	1.100738E-2
1.140500E-7	1.098340E-2
1.141000E-7	1.093544E-2
1.141500E-7	1.088063E-2
1.142000E-7	1.084979E-2
1.142500E-7	1.082239E-2
1.143000E-7	1.081211E-2
1.143500E-7	1.083609E-2
1.144000E-7	1.087035E-2
1.144500E-7	1.091489E-2
1.145000E-7	1.096970E-2
1.145500E-7	1.101081E-2
1.146000E-7	1.103137E-2
1.146500E-7	1.106220E-2
1.147000E-7	1.109303E-2
1.147500E-7	1.109646E-2
1.148000E-7	1.108275E-2
1.148500E-7	1.108275E-2
1.149000E-7	1.105877E-2
1.149500E-7	1.099368E-2
1.150000E-7	1.092516E-2
1.150500E-7	1.087720E-2
1.151000E-7	1.080183E-2
1.151500E-7	1.066822E-2
1.152000E-7	1.056887E-2
1.152500E-7	1.050378E-2
1.153000E-7	1.039415E-2
1.153500E-7	1.025369E-2
1.154000E-7	1.014749E-2
1.154500E-7	1.004471E-2
1.155000E-7	9.935081E-3
1.155500E-7	9.869989E-3
1.156000E-7	9.828879E-3
1.156500E-7	9.794620E-3
1.157000E-7	9.784342E-3
1.157500E-7	9.798046E-3
1.158000E-7	9.804897E-3
1.158500E-7	9.832305E-3
1.159000E-7	9.893971E-3
1.159500E-7	9.959063E-3
1.160000E-7	1.002415E-2
1.160500E-7	1.011665E-2
1.161000E-7	1.021600E-2
1.161500E-7	1.028795E-2
1.162000E-7	1.036674E-2
1.162500E-7	1.046267E-2
1.163000E-7	1.054489E-2
1.163500E-7	1.062369E-2
1.164000E-7	1.072646E-2
1.164500E-7	1.081896E-2
1.165000E-7	1.088748E-2
1.165500E-7	1.093544E-2
1.166000E-7	1.096627E-2
1.166500E-7	1.097998E-2
1.167000E-7	1.096970E-2
1.167500E-7	1.091831E-2
1.168000E-7	1.082924E-2
1.168500E-7	1.070933E-2
1.169000E-7	1.059285E-2
1.169500E-7	1.047637E-2
1.170000E-7	1.034619E-2
1.170500E-7	1.022628E-2
1.171000E-7	1.015434E-2
1.171500E-7	1.010295E-2
1.172000E-7	1.004814E-2
1.172500E-7	1.004814E-2
1.173000E-7	1.011665E-2
1.173500E-7	1.017489E-2
1.174000E-7	1.021943E-2
1.174500E-7	1.027424E-2
1.175000E-7	1.030850E-2
1.175500E-7	1.033248E-2
1.176000E-7	1.035304E-2
1.176500E-7	1.033248E-2
1.177000E-7	1.029480E-2
1.177500E-7	1.027082E-2
1.178000E-7	1.022628E-2
1.178500E-7	1.014406E-2
1.179000E-7	1.008582E-2
1.179500E-7	1.007212E-2
1.180000E-7	1.008925E-2
1.180500E-7	1.012008E-2
1.181000E-7	1.014749E-2
1.181500E-7	1.016804E-2
1.182000E-7	1.019887E-2
1.182500E-7	1.022971E-2
1.183000E-7	1.025711E-2
1.183500E-7	1.027767E-2
1.184000E-7	1.028795E-2
1.184500E-7	1.028452E-2
1.185000E-7	1.027082E-2
1.185500E-7	1.024684E-2
1.186000E-7	1.021943E-2
1.186500E-7	1.018860E-2
1.187000E-7	1.016119E-2
1.187500E-7	1.014749E-2
1.188000E-7	1.015091E-2
1.188500E-7	1.015776E-2
1.189000E-7	1.017147E-2
1.189500E-7	1.019545E-2
1.190000E-7	1.022286E-2
1.190500E-7	1.027767E-2
1.191000E-7	1.033248E-2
1.191500E-7	1.036332E-2
1.192000E-7	1.040785E-2
1.192500E-7	1.047295E-2
1.193000E-7	1.051748E-2
1.193500E-7	1.054146E-2
1.194000E-7	1.055174E-2
1.194500E-7	1.054489E-2
1.195000E-7	1.052091E-2
1.195500E-7	1.049693E-2
1.196000E-7	1.047637E-2
1.196500E-7	1.041813E-2
1.197000E-7	1.033591E-2
1.197500E-7	1.027424E-2
1.198000E-7	1.021258E-2
1.198500E-7	1.012008E-2
1.199000E-7	1.004814E-2
1.199500E-7	9.979618E-3
1.200000E-7	9.907674E-3
1.200500E-7	9.873415E-3
1.201000E-7	9.873415E-3
1.201500E-7	9.856286E-3
1.202000E-7	9.859712E-3
1.202500E-7	9.904248E-3
1.203000E-7	9.924804E-3
1.203500E-7	9.907674E-3
1.204000E-7	9.924804E-3
1.204500E-7	9.941933E-3
1.205000E-7	9.904248E-3
1.205500E-7	9.849434E-3
1.206000E-7	9.808323E-3
1.206500E-7	9.750083E-3
1.207000E-7	9.708973E-3
1.207500E-7	9.708973E-3
1.208000E-7	9.715824E-3
1.208500E-7	9.736380E-3
1.209000E-7	9.787768E-3
1.209500E-7	9.866563E-3
1.210000E-7	9.959063E-3
1.210500E-7	1.005156E-2
1.211000E-7	1.011323E-2
1.211500E-7	1.015091E-2
1.212000E-7	1.015776E-2
1.212500E-7	1.015434E-2
1.213000E-7	1.012351E-2
1.213500E-7	1.006184E-2
1.214000E-7	9.972766E-3
1.214500E-7	9.890545E-3
1.215000E-7	9.808323E-3
1.215500E-7	9.719250E-3
1.216000E-7	9.667862E-3
1.216500E-7	9.671288E-3
1.217000E-7	9.695269E-3
1.217500E-7	9.722676E-3
1.218000E-7	9.763787E-3
1.218500E-7	9.808323E-3
1.219000E-7	9.828879E-3
1.219500E-7	9.852860E-3
1.220000E-7	9.863138E-3
1.220500E-7	9.828879E-3
1.221000E-7	9.763787E-3
1.221500E-7	9.691843E-3
1.222000E-7	9.616474E-3
1.222500E-7	9.520549E-3
1.223000E-7	9.417772E-3
1.223500E-7	9.318421E-3
1.224000E-7	9.249903E-3
1.224500E-7	9.212218E-3
1.225000E-7	9.195089E-3
1.225500E-7	9.177960E-3
1.226000E-7	9.177960E-3
1.226500E-7	9.195089E-3
1.227000E-7	9.222496E-3
1.227500E-7	9.253329E-3
1.228000E-7	9.270459E-3
1.228500E-7	9.301292E-3
1.229000E-7	9.338976E-3
1.229500E-7	9.342402E-3
1.230000E-7	9.338976E-3
1.230500E-7	9.352680E-3
1.231000E-7	9.373235E-3
1.231500E-7	9.414346E-3
1.232000E-7	9.469160E-3
1.232500E-7	9.496567E-3
1.233000E-7	9.520549E-3
1.233500E-7	9.595918E-3
1.234000E-7	9.681565E-3
1.234500E-7	9.739806E-3
1.235000E-7	9.787768E-3
1.235500E-7	9.815175E-3
1.236000E-7	9.794620E-3
1.236500E-7	9.774064E-3
1.237000E-7	9.763787E-3
1.237500E-7	9.750083E-3
1.238000E-7	9.729528E-3
1.238500E-7	9.722676E-3
1.239000E-7	9.729528E-3
1.239500E-7	9.736380E-3
1.240000E-7	9.753509E-3
1.240500E-7	9.801472E-3
1.241000E-7	9.863138E-3
1.241500E-7	9.907674E-3
1.242000E-7	9.938507E-3
1.242500E-7	9.962488E-3
1.243000E-7	9.962488E-3
1.243500E-7	9.914526E-3
1.244000E-7	9.846008E-3
1.244500E-7	9.770639E-3
1.245000E-7	9.691843E-3
1.245500E-7	9.613048E-3
1.246000E-7	9.530826E-3
1.246500E-7	9.462308E-3
1.247000E-7	9.424624E-3
1.247500E-7	9.410920E-3
1.248000E-7	9.404068E-3
1.248500E-7	9.417772E-3
1.249000E-7	9.462308E-3
1.249500E-7	9.520549E-3
1.250000E-7	9.554807E-3
1.250500E-7	9.571937E-3
1.251000E-7	9.578789E-3
1.251500E-7	9.565085E-3
1.252000E-7	9.541104E-3
1.252500E-7	9.530826E-3
1.253000E-7	9.496567E-3
1.253500E-7	9.438327E-3
1.254000E-7	9.400642E-3
1.254500E-7	9.386939E-3
1.255000E-7	9.373235E-3
1.255500E-7	9.407494E-3
1.256000E-7	9.448605E-3
1.256500E-7	9.476012E-3
1.257000E-7	9.510271E-3
1.257500E-7	9.551382E-3
1.258000E-7	9.578789E-3
1.258500E-7	9.619899E-3
1.259000E-7	9.650732E-3
1.259500E-7	9.626751E-3
1.260000E-7	9.592492E-3
1.260500E-7	9.582215E-3
1.261000E-7	9.547956E-3
1.261500E-7	9.476012E-3
1.262000E-7	9.410920E-3
1.262500E-7	9.352680E-3
1.263000E-7	9.294440E-3
1.263500E-7	9.246477E-3
1.264000E-7	9.229348E-3
1.264500E-7	9.219070E-3
1.265000E-7	9.198515E-3
1.265500E-7	9.208793E-3
1.266000E-7	9.256755E-3
1.266500E-7	9.287588E-3
1.267000E-7	9.270459E-3
1.267500E-7	9.270459E-3
1.268000E-7	9.308143E-3
1.268500E-7	9.325273E-3
1.269000E-7	9.332125E-3
1.269500E-7	9.345828E-3
1.270000E-7	9.359532E-3
1.270500E-7	9.369809E-3
1.271000E-7	9.380087E-3
1.271500E-7	9.356106E-3
1.272000E-7	9.308143E-3
1.272500E-7	9.260181E-3
1.273000E-7	9.212218E-3
1.273500E-7	9.171108E-3
1.274000E-7	9.123145E-3
1.274500E-7	9.085461E-3
1.275000E-7	9.061479E-3
1.275500E-7	9.044350E-3
1.276000E-7	9.027220E-3
1.276500E-7	9.020369E-3
1.277000E-7	9.013517E-3
1.277500E-7	8.999813E-3
1.278000E-7	8.996387E-3
1.278500E-7	9.016943E-3
1.279000E-7	9.030646E-3
1.279500E-7	9.010091E-3
1.280000E-7	8.975832E-3
1.280500E-7	8.938147E-3
1.281000E-7	8.886759E-3
1.281500E-7	8.849074E-3
1.282000E-7	8.825093E-3
1.282500E-7	8.811389E-3
1.283000E-7	8.811389E-3
1.283500E-7	8.838796E-3
1.284000E-7	8.869629E-3
1.284500E-7	8.900462E-3
1.285000E-7	8.938147E-3
1.285500E-7	8.996387E-3
1.286000E-7	9.037498E-3
1.286500E-7	9.064905E-3
1.287000E-7	9.095738E-3
1.287500E-7	9.112868E-3
1.288000E-7	9.088886E-3
1.288500E-7	9.058053E-3
1.289000E-7	9.020369E-3
1.289500E-7	8.979258E-3
1.290000E-7	8.934721E-3
1.290500E-7	8.883333E-3
1.291000E-7	8.825093E-3
1.291500E-7	8.794260E-3
1.292000E-7	8.794260E-3
1.292500E-7	8.783982E-3
1.293000E-7	8.777130E-3
1.293500E-7	8.790834E-3
1.294000E-7	8.801112E-3
1.294500E-7	8.790834E-3
1.295000E-7	8.780556E-3
1.295500E-7	8.763427E-3
1.296000E-7	8.718890E-3
1.296500E-7	8.677780E-3
1.297000E-7	8.636669E-3
1.297500E-7	8.588706E-3
1.298000E-7	8.551022E-3
1.298500E-7	8.520189E-3
1.299000E-7	8.485930E-3
1.299500E-7	8.472226E-3
1.300000E-7	8.492782E-3
1.300500E-7	8.520189E-3
1.301000E-7	8.537318E-3
1.301500E-7	8.575003E-3
1.302000E-7	8.619539E-3
1.302500E-7	8.646947E-3
1.303000E-7	8.688057E-3
1.303500E-7	8.722316E-3
1.304000E-7	8.712039E-3
1.304500E-7	8.708613E-3
1.305000E-7	8.742872E-3
1.305500E-7	8.742872E-3
1.306000E-7	8.708613E-3
1.306500E-7	8.715464E-3
1.307000E-7	8.718890E-3
1.307500E-7	8.691483E-3
1.308000E-7	8.701761E-3
1.308500E-7	8.739446E-3
1.309000E-7	8.756575E-3
1.309500E-7	8.797686E-3
1.310000E-7	8.879907E-3
1.310500E-7	8.948425E-3
1.311000E-7	9.006665E-3
1.311500E-7	9.064905E-3
1.312000E-7	9.112868E-3
1.312500E-7	9.143701E-3
1.313000E-7	9.150552E-3
1.313500E-7	9.109442E-3
1.314000E-7	9.044350E-3
1.314500E-7	8.962129E-3
1.315000E-7	8.845648E-3
1.315500E-7	8.712039E-3
1.316000E-7	8.612688E-3
1.316500E-7	8.544170E-3
1.317000E-7	8.472226E-3
1.317500E-7	8.424264E-3
1.318000E-7	8.413986E-3
1.318500E-7	8.437967E-3
1.319000E-7	8.475652E-3
1.319500E-7	8.527040E-3
1.320000E-7	8.571577E-3
1.320500E-7	8.609262E-3
1.321000E-7	8.643521E-3
1.321500E-7	8.657224E-3
1.322000E-7	8.633243E-3
1.322500E-7	8.612688E-3
1.323000E-7	8.609262E-3
1.323500E-7	8.588706E-3
1.324000E-7	8.568151E-3
1.324500E-7	8.564725E-3
1.325000E-7	8.537318E-3
1.325500E-7	8.489356E-3
1.326000E-7	8.458523E-3
1.326500E-7	8.434541E-3
1.327000E-7	8.420838E-3
1.327500E-7	8.427690E-3
1.328000E-7	8.424264E-3
1.328500E-7	8.393431E-3
1.329000E-7	8.362598E-3
1.329500E-7	8.342042E-3
1.330000E-7	8.342042E-3
1.330500E-7	8.342042E-3
1.331000E-7	8.338617E-3
1.331500E-7	8.355746E-3
1.332000E-7	8.376301E-3
1.332500E-7	8.372875E-3
1.333000E-7	8.345468E-3
1.333500E-7	8.348894E-3
1.334000E-7	8.338617E-3
1.334500E-7	8.276950E-3
1.335000E-7	8.222136E-3
1.335500E-7	8.191303E-3
1.336000E-7	8.153618E-3
1.336500E-7	8.139915E-3
1.337000E-7	8.150193E-3
1.337500E-7	8.153618E-3
1.338000E-7	8.157044E-3
1.338500E-7	8.198155E-3
1.339000E-7	8.246117E-3
1.339500E-7	8.283802E-3
1.340000E-7	8.324913E-3
1.340500E-7	8.366024E-3
1.341000E-7	8.390005E-3
1.341500E-7	8.393431E-3
1.342000E-7	8.393431E-3
1.342500E-7	8.386579E-3
1.343000E-7	8.400283E-3
1.343500E-7	8.413986E-3
1.344000E-7	8.393431E-3
1.344500E-7	8.369450E-3
1.345000E-7	8.376301E-3
1.345500E-7	8.362598E-3
1.346000E-7	8.324913E-3
1.346500E-7	8.276950E-3
1.347000E-7	8.211859E-3
1.347500E-7	8.129637E-3
1.348000E-7	8.040564E-3
1.348500E-7	7.954917E-3
1.349000E-7	7.865844E-3
1.349500E-7	7.776771E-3
1.350000E-7	7.694549E-3
1.350500E-7	7.636309E-3
1.351000E-7	7.612328E-3
1.351500E-7	7.608902E-3
1.352000E-7	7.629457E-3
1.352500E-7	7.677420E-3
1.353000E-7	7.739086E-3
1.353500E-7	7.807604E-3
1.354000E-7	7.889825E-3
1.354500E-7	7.965194E-3
1.355000E-7	8.009731E-3
1.355500E-7	8.043990E-3
1.356000E-7	8.074823E-3
1.356500E-7	8.098804E-3
1.357000E-7	8.122785E-3
1.357500E-7	8.146767E-3
1.358000E-7	8.153618E-3
1.358500E-7	8.163896E-3
1.359000E-7	8.174174E-3
1.359500E-7	8.174174E-3
1.360000E-7	8.184451E-3
1.360500E-7	8.208433E-3
1.361000E-7	8.228988E-3
1.361500E-7	8.249543E-3
1.362000E-7	8.263247E-3
1.362500E-7	8.242692E-3
1.363000E-7	8.201581E-3
1.363500E-7	8.170748E-3
1.364000E-7	8.146767E-3
1.364500E-7	8.115934E-3
1.365000E-7	8.074823E-3
1.365500E-7	8.050842E-3
1.366000E-7	8.016583E-3
1.366500E-7	7.968620E-3
1.367000E-7	7.941213E-3
1.367500E-7	7.930936E-3
1.368000E-7	7.913806E-3
1.368500E-7	7.924084E-3
1.369000E-7	7.944639E-3
1.369500E-7	7.944639E-3
1.370000E-7	7.965194E-3
1.370500E-7	8.009731E-3
1.371000E-7	8.030286E-3
1.371500E-7	8.013157E-3
1.372000E-7	8.002879E-3
1.372500E-7	8.009731E-3
1.373000E-7	7.992602E-3
1.373500E-7	7.924084E-3
1.374000E-7	7.858992E-3
1.374500E-7	7.800752E-3
1.375000E-7	7.735660E-3
1.375500E-7	7.673994E-3
1.376000E-7	7.626031E-3
1.376500E-7	7.591772E-3
1.377000E-7	7.571217E-3
1.377500E-7	7.598624E-3
1.378000E-7	7.653438E-3
1.378500E-7	7.673994E-3
1.379000E-7	7.660290E-3
1.379500E-7	7.667142E-3
1.380000E-7	7.673994E-3
1.380500E-7	7.636309E-3
1.381000E-7	7.560939E-3
1.381500E-7	7.488996E-3
1.382000E-7	7.403349E-3
1.382500E-7	7.280016E-3
1.383000E-7	7.170388E-3
1.383500E-7	7.091593E-3
1.384000E-7	7.043630E-3
1.384500E-7	7.019649E-3
1.385000E-7	7.050482E-3
1.385500E-7	7.122426E-3
1.386000E-7	7.218350E-3
1.386500E-7	7.317701E-3
1.387000E-7	7.417052E-3
1.387500E-7	7.516403E-3
1.388000E-7	7.581495E-3
1.388500E-7	7.615754E-3
1.389000E-7	7.653438E-3
1.389500E-7	7.660290E-3
1.390000E-7	7.615754E-3
1.390500E-7	7.560939E-3
1.391000E-7	7.516403E-3
1.391500E-7	7.461589E-3
1.392000E-7	7.420478E-3
1.392500E-7	7.423904E-3
1.393000E-7	7.444459E-3
1.393500E-7	7.468440E-3
1.394000E-7	7.543810E-3
1.394500E-7	7.639735E-3
1.395000E-7	7.694549E-3
1.395500E-7	7.742512E-3
1.396000E-7	7.804178E-3
1.396500E-7	7.845288E-3
1.397000E-7	7.862418E-3
1.397500E-7	7.865844E-3
1.398000E-7	7.817881E-3
1.398500E-7	7.718530E-3
1.399000E-7	7.632883E-3
1.399500E-7	7.543810E-3
1.400000E-7	7.410200E-3
1.400500E-7	7.262887E-3
1.401000E-7	7.146407E-3
1.401500E-7	7.060759E-3
1.402000E-7	7.009371E-3
1.402500E-7	6.978538E-3
1.403000E-7	6.985390E-3
1.403500E-7	6.999093E-3
1.404000E-7	7.019649E-3
1.404500E-7	7.095018E-3
1.405000E-7	7.197795E-3
1.405500E-7	7.293720E-3
1.406000E-7	7.410200E-3
1.406500E-7	7.536958E-3
1.407000E-7	7.622605E-3
1.407500E-7	7.677420E-3
1.408000E-7	7.708253E-3
1.408500E-7	7.711679E-3
1.409000E-7	7.708253E-3
1.409500E-7	7.687697E-3
1.410000E-7	7.632883E-3
1.410500E-7	7.571217E-3
1.411000E-7	7.516403E-3
1.411500E-7	7.434182E-3
1.412000E-7	7.345108E-3
1.412500E-7	7.314275E-3
1.413000E-7	7.317701E-3
1.413500E-7	7.334831E-3
1.414000E-7	7.393071E-3
1.414500E-7	7.454737E-3
1.415000E-7	7.509551E-3
1.415500E-7	7.564365E-3
1.416000E-7	7.612328E-3
1.416500E-7	7.643161E-3
1.417000E-7	7.667142E-3
1.417500E-7	7.670568E-3
1.418000E-7	7.656864E-3
1.418500E-7	7.639735E-3
1.419000E-7	7.612328E-3
1.419500E-7	7.567791E-3
1.420000E-7	7.533532E-3
1.420500E-7	7.506125E-3
1.421000E-7	7.482144E-3
1.421500E-7	7.458163E-3
1.422000E-7	7.430756E-3
1.422500E-7	7.393071E-3
1.423000E-7	7.358812E-3
1.423500E-7	7.327979E-3
1.424000E-7	7.280016E-3
1.424500E-7	7.232054E-3
1.425000E-7	7.201221E-3
1.425500E-7	7.173814E-3
1.426000E-7	7.163536E-3
1.426500E-7	7.190943E-3
1.427000E-7	7.218350E-3
1.427500E-7	7.235480E-3
1.428000E-7	7.269739E-3
1.428500E-7	7.310849E-3
1.429000E-7	7.334831E-3
1.429500E-7	7.345108E-3
1.430000E-7	7.365664E-3
1.430500E-7	7.355386E-3
1.431000E-7	7.290294E-3
1.431500E-7	7.221776E-3
1.432000E-7	7.180666E-3
1.432500E-7	7.129277E-3
1.433000E-7	7.077889E-3
1.433500E-7	7.047056E-3
1.434000E-7	7.023075E-3
1.434500E-7	7.023075E-3
1.435000E-7	7.060759E-3
1.435500E-7	7.108722E-3
1.436000E-7	7.170388E-3
1.436500E-7	7.238906E-3
1.437000E-7	7.297146E-3
1.437500E-7	7.355386E-3
1.438000E-7	7.396497E-3
1.438500E-7	7.406774E-3
1.439000E-7	7.389645E-3
1.439500E-7	7.358812E-3
1.440000E-7	7.310849E-3
1.440500E-7	7.242332E-3
1.441000E-7	7.194369E-3
1.441500E-7	7.160110E-3
1.442000E-7	7.105296E-3
1.442500E-7	7.043630E-3
1.443000E-7	7.005945E-3
1.443500E-7	6.985390E-3
1.444000E-7	6.968260E-3
1.444500E-7	6.975112E-3
1.445000E-7	6.975112E-3
1.445500E-7	6.961409E-3
1.446000E-7	6.975112E-3
1.446500E-7	7.019649E-3
1.447000E-7	7.074463E-3
1.447500E-7	7.129277E-3
1.448000E-7	7.190943E-3
1.448500E-7	7.228628E-3
1.449000E-7	7.242332E-3
1.449500E-7	7.259461E-3
1.450000E-7	7.276591E-3
1.450500E-7	7.269739E-3
1.451000E-7	7.228628E-3
1.451500E-7	7.163536E-3
1.452000E-7	7.077889E-3
1.452500E-7	6.978538E-3
1.453000E-7	6.879187E-3
1.453500E-7	6.796966E-3
1.454000E-7	6.728448E-3
1.454500E-7	6.673634E-3
1.455000E-7	6.608542E-3
1.455500E-7	6.546876E-3
1.456000E-7	6.512617E-3
1.456500E-7	6.526321E-3
1.457000E-7	6.564005E-3
1.457500E-7	6.577709E-3
1.458000E-7	6.584561E-3
1.458500E-7	6.615394E-3
1.459000E-7	6.673634E-3
1.459500E-7	6.697615E-3
1.460000E-7	6.701041E-3
1.460500E-7	6.714745E-3
1.461000E-7	6.721596E-3
1.461500E-7	6.711319E-3
1.462000E-7	6.725022E-3
1.462500E-7	6.738726E-3
1.463000E-7	6.721596E-3
1.463500E-7	6.714745E-3
1.464000E-7	6.721596E-3
1.464500E-7	6.704467E-3
1.465000E-7	6.690763E-3
1.465500E-7	6.714745E-3
1.466000E-7	6.742152E-3
1.466500E-7	6.755855E-3
1.467000E-7	6.786688E-3
1.467500E-7	6.831225E-3
1.468000E-7	6.851780E-3
1.468500E-7	6.872336E-3
1.469000E-7	6.899743E-3
1.469500E-7	6.896317E-3
1.470000E-7	6.868910E-3
1.470500E-7	6.851780E-3
1.471000E-7	6.814095E-3
1.471500E-7	6.749003E-3
1.472000E-7	6.677060E-3
1.472500E-7	6.584561E-3
1.473000E-7	6.478358E-3
1.473500E-7	6.399563E-3
1.474000E-7	6.341323E-3
1.474500E-7	6.289934E-3
1.475000E-7	6.255675E-3
1.475500E-7	6.238546E-3
1.476000E-7	6.228268E-3
1.476500E-7	6.252249E-3
1.477000E-7	6.296786E-3
1.477500E-7	6.310490E-3
1.478000E-7	6.317341E-3
1.478500E-7	6.348174E-3
1.479000E-7	6.365304E-3
1.479500E-7	6.365304E-3
1.480000E-7	6.382433E-3
1.480500E-7	6.382433E-3
1.481000E-7	6.358452E-3
1.481500E-7	6.341323E-3
1.482000E-7	6.327619E-3
1.482500E-7	6.327619E-3
1.483000E-7	6.365304E-3
1.483500E-7	6.409840E-3
1.484000E-7	6.464655E-3
1.484500E-7	6.546876E-3
1.485000E-7	6.639375E-3
1.485500E-7	6.707893E-3
1.486000E-7	6.766133E-3
1.486500E-7	6.827799E-3
1.487000E-7	6.875761E-3
1.487500E-7	6.896317E-3
1.488000E-7	6.882613E-3
1.488500E-7	6.834651E-3
1.489000E-7	6.776411E-3
1.489500E-7	6.707893E-3
1.490000E-7	6.615394E-3
1.490500E-7	6.498914E-3
1.491000E-7	6.389285E-3
1.491500E-7	6.303638E-3
1.492000E-7	6.241972E-3
1.492500E-7	6.217991E-3
1.493000E-7	6.207713E-3
1.493500E-7	6.197435E-3
1.494000E-7	6.231694E-3
1.494500E-7	6.303638E-3
1.495000E-7	6.372156E-3
1.495500E-7	6.444099E-3
1.496000E-7	6.533172E-3
1.496500E-7	6.605116E-3
1.497000E-7	6.649653E-3
1.497500E-7	6.687337E-3
1.498000E-7	6.718170E-3
1.498500E-7	6.738726E-3
1.499000E-7	6.721596E-3
1.499500E-7	6.642801E-3
1.500000E-7	6.564005E-3
1.500500E-7	6.509191E-3
1.501000E-7	6.454377E-3
1.501500E-7	6.396137E-3
1.502000E-7	6.361878E-3
1.502500E-7	6.337897E-3
1.503000E-7	6.300212E-3
1.503500E-7	6.286508E-3
1.504000E-7	6.307064E-3
1.504500E-7	6.324193E-3
1.505000E-7	6.337897E-3
1.505500E-7	6.358452E-3
1.506000E-7	6.389285E-3
1.506500E-7	6.413266E-3
1.507000E-7	6.430396E-3
1.507500E-7	6.447525E-3
1.508000E-7	6.485210E-3
1.508500E-7	6.522895E-3
1.509000E-7	6.546876E-3
1.509500E-7	6.574283E-3
1.510000E-7	6.594838E-3
1.510500E-7	6.587987E-3
1.511000E-7	6.581135E-3
1.511500E-7	6.587987E-3
1.512000E-7	6.591413E-3
1.512500E-7	6.598264E-3
1.513000E-7	6.618820E-3
1.513500E-7	6.642801E-3
1.514000E-7	6.659930E-3
1.514500E-7	6.690763E-3
1.515000E-7	6.728448E-3
1.515500E-7	6.749003E-3
1.516000E-7	6.762707E-3
1.516500E-7	6.779837E-3
1.517000E-7	6.769559E-3
1.517500E-7	6.749003E-3
1.518000E-7	6.735300E-3
1.518500E-7	6.670208E-3
1.519000E-7	6.567431E-3
1.519500E-7	6.474932E-3
1.520000E-7	6.399563E-3
1.520500E-7	6.313915E-3
1.521000E-7	6.245398E-3
1.521500E-7	6.190583E-3
1.522000E-7	6.125491E-3
1.522500E-7	6.084381E-3
1.523000E-7	6.094658E-3
1.523500E-7	6.098084E-3
1.524000E-7	6.077529E-3
1.524500E-7	6.080955E-3
1.525000E-7	6.125491E-3
1.525500E-7	6.183732E-3
1.526000E-7	6.241972E-3
1.526500E-7	6.293360E-3
1.527000E-7	6.337897E-3
1.527500E-7	6.379007E-3
1.528000E-7	6.420118E-3
1.528500E-7	6.474932E-3
1.529000E-7	6.533172E-3
1.529500E-7	6.581135E-3
1.530000E-7	6.601690E-3
1.530500E-7	6.618820E-3
1.531000E-7	6.649653E-3
1.531500E-7	6.670208E-3
1.532000E-7	6.653079E-3
1.532500E-7	6.639375E-3
1.533000E-7	6.632523E-3
1.533500E-7	6.618820E-3
1.534000E-7	6.608542E-3
1.534500E-7	6.611968E-3
1.535000E-7	6.581135E-3
1.535500E-7	6.540024E-3
1.536000E-7	6.526321E-3
1.536500E-7	6.498914E-3
1.537000E-7	6.440673E-3
1.537500E-7	6.402989E-3
1.538000E-7	6.368730E-3
1.538500E-7	6.293360E-3
1.539000E-7	6.211139E-3
1.539500E-7	6.149473E-3
1.540000E-7	6.067251E-3
1.540500E-7	6.002159E-3
1.541000E-7	5.971326E-3
1.541500E-7	5.933642E-3
1.542000E-7	5.902809E-3
1.542500E-7	5.926790E-3
1.543000E-7	5.954197E-3
1.543500E-7	5.967901E-3
1.544000E-7	6.009011E-3
1.544500E-7	6.046696E-3
1.545000E-7	6.032992E-3
1.545500E-7	6.036418E-3
1.546000E-7	6.074103E-3
1.546500E-7	6.070677E-3
1.547000E-7	6.050122E-3
1.547500E-7	6.060400E-3
1.548000E-7	6.060400E-3
1.548500E-7	6.050122E-3
1.549000E-7	6.050122E-3
1.549500E-7	6.036418E-3
1.550000E-7	6.022715E-3
1.550500E-7	6.026141E-3
1.551000E-7	6.036418E-3
1.551500E-7	6.019289E-3
1.552000E-7	5.988456E-3
1.552500E-7	5.957623E-3
1.553000E-7	5.933642E-3
1.553500E-7	5.937068E-3
1.554000E-7	5.950771E-3
1.554500E-7	5.943919E-3
1.555000E-7	5.930216E-3
1.555500E-7	5.954197E-3
1.556000E-7	5.981604E-3
1.556500E-7	5.981604E-3
1.557000E-7	5.981604E-3
1.557500E-7	6.005585E-3
1.558000E-7	6.046696E-3
1.558500E-7	6.084381E-3
1.559000E-7	6.104936E-3
1.559500E-7	6.139195E-3
1.560000E-7	6.170028E-3
1.560500E-7	6.197435E-3
1.561000E-7	6.252249E-3
1.561500E-7	6.310490E-3
1.562000E-7	6.337897E-3
1.562500E-7	6.348174E-3
1.563000E-7	6.358452E-3
1.563500E-7	6.348174E-3
1.564000E-7	6.313915E-3
1.564500E-7	6.286508E-3
1.565000E-7	6.259101E-3
1.565500E-7	6.231694E-3
1.566000E-7	6.214565E-3
1.566500E-7	6.197435E-3
1.567000E-7	6.176880E-3
1.567500E-7	6.163176E-3
1.568000E-7	6.159750E-3
1.568500E-7	6.142621E-3
1.569000E-7	6.128917E-3
1.569500E-7	6.125491E-3
1.570000E-7	6.118640E-3
1.570500E-7	6.098084E-3
1.571000E-7	6.053548E-3
1.571500E-7	5.988456E-3
1.572000E-7	5.930216E-3
1.572500E-7	5.909660E-3
1.573000E-7	5.885679E-3
1.573500E-7	5.875402E-3
1.574000E-7	5.909660E-3
1.574500E-7	5.961049E-3
1.575000E-7	6.015863E-3
1.575500E-7	6.091233E-3
1.576000E-7	6.166602E-3
1.576500E-7	6.211139E-3
1.577000E-7	6.241972E-3
1.577500E-7	6.272805E-3
1.578000E-7	6.265953E-3
1.578500E-7	6.231694E-3
1.579000E-7	6.214565E-3
1.579500E-7	6.187158E-3
1.580000E-7	6.132343E-3
1.580500E-7	6.084381E-3
1.581000E-7	6.046696E-3
1.581500E-7	6.009011E-3
1.582000E-7	5.981604E-3
1.582500E-7	5.981604E-3
1.583000E-7	5.985030E-3
1.583500E-7	5.995308E-3
1.584000E-7	5.988456E-3
1.584500E-7	5.974752E-3
1.585000E-7	5.954197E-3
1.585500E-7	5.906235E-3
1.586000E-7	5.847994E-3
1.586500E-7	5.803458E-3
1.587000E-7	5.755495E-3
1.587500E-7	5.717811E-3
1.588000E-7	5.707533E-3
1.588500E-7	5.707533E-3
1.589000E-7	5.700681E-3
1.589500E-7	5.700681E-3
1.590000E-7	5.745218E-3
1.590500E-7	5.803458E-3
1.591000E-7	5.858272E-3
1.591500E-7	5.882253E-3
1.592000E-7	5.878827E-3
1.592500E-7	5.868550E-3
1.593000E-7	5.858272E-3
1.593500E-7	5.827439E-3
1.594000E-7	5.776051E-3
1.594500E-7	5.738366E-3
1.595000E-7	5.721236E-3
1.595500E-7	5.697255E-3
1.596000E-7	5.680126E-3
1.596500E-7	5.700681E-3
1.597000E-7	5.755495E-3
1.597500E-7	5.806884E-3
1.598000E-7	5.865124E-3
1.598500E-7	5.937068E-3
1.599000E-7	6.002159E-3
1.599500E-7	6.063825E-3
1.600000E-7	6.125491E-3
1.600500E-7	6.166602E-3
1.601000E-7	6.166602E-3
1.601500E-7	6.156325E-3
1.602000E-7	6.125491E-3
1.602500E-7	6.070677E-3
1.603000E-7	6.012437E-3
1.603500E-7	5.971326E-3
1.604000E-7	5.913086E-3
1.604500E-7	5.861698E-3
1.605000E-7	5.858272E-3
1.605500E-7	5.875402E-3
1.606000E-7	5.906235E-3
1.606500E-7	5.981604E-3
1.607000E-7	6.067251E-3
1.607500E-7	6.152899E-3
1.608000E-7	6.255675E-3
1.608500E-7	6.355026E-3
1.609000E-7	6.409840E-3
1.609500E-7	6.433822E-3
1.610000E-7	6.464655E-3
1.610500E-7	6.478358E-3
1.611000E-7	6.457803E-3
1.611500E-7	6.430396E-3
1.612000E-7	6.396137E-3
1.612500E-7	6.327619E-3
1.613000E-7	6.259101E-3
1.613500E-7	6.200861E-3
1.614000E-7	6.139195E-3
1.614500E-7	6.074103E-3
1.615000E-7	6.019289E-3
1.615500E-7	5.974752E-3
1.616000E-7	5.937068E-3
1.616500E-7	5.878827E-3
1.617000E-7	5.824013E-3
1.617500E-7	5.789754E-3
1.618000E-7	5.762347E-3
1.618500E-7	5.734940E-3
1.619000E-7	5.710959E-3
1.619500E-7	5.686978E-3
1.620000E-7	5.662996E-3
1.620500E-7	5.635589E-3
1.621000E-7	5.618460E-3
1.621500E-7	5.642441E-3
1.622000E-7	5.652719E-3
1.622500E-7	5.639015E-3
1.623000E-7	5.645867E-3
1.623500E-7	5.693829E-3
1.624000E-7	5.731514E-3
1.624500E-7	5.748644E-3
1.625000E-7	5.782902E-3
1.625500E-7	5.824013E-3
1.626000E-7	5.844569E-3
1.626500E-7	5.861698E-3
1.627000E-7	5.868550E-3
1.627500E-7	5.847994E-3
1.628000E-7	5.841143E-3
1.628500E-7	5.834291E-3
1.629000E-7	5.789754E-3
1.629500E-7	5.769199E-3
1.630000E-7	5.779477E-3
1.630500E-7	5.779477E-3
1.631000E-7	5.765773E-3
1.631500E-7	5.765773E-3
1.632000E-7	5.776051E-3
1.632500E-7	5.779477E-3
1.633000E-7	5.813735E-3
1.633500E-7	5.882253E-3
1.634000E-7	5.926790E-3
1.634500E-7	5.926790E-3
1.635000E-7	5.947345E-3
1.635500E-7	5.995308E-3
1.636000E-7	6.032992E-3
1.636500E-7	6.050122E-3
1.637000E-7	6.060400E-3
1.637500E-7	6.074103E-3
1.638000E-7	6.060400E-3
1.638500E-7	6.029567E-3
1.639000E-7	6.012437E-3
1.639500E-7	5.974752E-3
1.640000E-7	5.906235E-3
1.640500E-7	5.844569E-3
1.641000E-7	5.782902E-3
1.641500E-7	5.707533E-3
1.642000E-7	5.635589E-3
1.642500E-7	5.584201E-3
1.643000E-7	5.563646E-3
1.643500E-7	5.573923E-3
1.644000E-7	5.591053E-3
1.644500E-7	5.601330E-3
1.645000E-7	5.632163E-3
1.645500E-7	5.683552E-3
1.646000E-7	5.707533E-3
1.646500E-7	5.704107E-3
1.647000E-7	5.717811E-3
1.647500E-7	5.731514E-3
1.648000E-7	5.721236E-3
1.648500E-7	5.704107E-3
1.649000E-7	5.697255E-3
1.649500E-7	5.697255E-3
1.650000E-7	5.707533E-3
1.650500E-7	5.717811E-3
1.651000E-7	5.717811E-3
1.651500E-7	5.704107E-3
1.652000E-7	5.680126E-3
1.652500E-7	5.669848E-3
1.653000E-7	5.680126E-3
1.653500E-7	5.683552E-3
1.654000E-7	5.662996E-3
1.654500E-7	5.662996E-3
1.655000E-7	5.680126E-3
1.655500E-7	5.676700E-3
1.656000E-7	5.686978E-3
1.656500E-7	5.731514E-3
1.657000E-7	5.782902E-3
1.657500E-7	5.844569E-3
1.658000E-7	5.906235E-3
1.658500E-7	5.957623E-3
1.659000E-7	6.009011E-3
1.659500E-7	6.063825E-3
1.660000E-7	6.067251E-3
1.660500E-7	6.043270E-3
1.661000E-7	6.019289E-3
1.661500E-7	5.954197E-3
1.662000E-7	5.820587E-3
1.662500E-7	5.656145E-3
1.663000E-7	5.522535E-3
1.663500E-7	5.395777E-3
1.664000E-7	5.279297E-3
1.664500E-7	5.197075E-3
1.665000E-7	5.152539E-3
1.665500E-7	5.152539E-3
1.666000E-7	5.217631E-3
1.666500E-7	5.320407E-3
1.667000E-7	5.433462E-3
1.667500E-7	5.563646E-3
1.668000E-7	5.680126E-3
1.668500E-7	5.782902E-3
1.669000E-7	5.868550E-3
1.669500E-7	5.909660E-3
1.670000E-7	5.902809E-3
1.670500E-7	5.847994E-3
1.671000E-7	5.748644E-3
1.671500E-7	5.628737E-3
1.672000E-7	5.549942E-3
1.672500E-7	5.477998E-3
1.673000E-7	5.378647E-3
1.673500E-7	5.303278E-3
1.674000E-7	5.286148E-3
1.674500E-7	5.289574E-3
1.675000E-7	5.286148E-3
1.675500E-7	5.320407E-3
1.676000E-7	5.378647E-3
1.676500E-7	5.426610E-3
1.677000E-7	5.467721E-3
1.677500E-7	5.512257E-3
1.678000E-7	5.519109E-3
1.678500E-7	5.498554E-3
1.679000E-7	5.488276E-3
1.679500E-7	5.471146E-3
1.680000E-7	5.406055E-3
1.680500E-7	5.347814E-3
1.681000E-7	5.327259E-3
1.681500E-7	5.303278E-3
1.682000E-7	5.279297E-3
1.682500E-7	5.282723E-3
1.683000E-7	5.296426E-3
1.683500E-7	5.327259E-3
1.684000E-7	5.371796E-3
1.684500E-7	5.412906E-3
1.685000E-7	5.457443E-3
1.685500E-7	5.512257E-3
1.686000E-7	5.549942E-3
1.686500E-7	5.556794E-3
1.687000E-7	5.573923E-3
1.687500E-7	5.580775E-3
1.688000E-7	5.556794E-3
1.688500E-7	5.525961E-3
1.689000E-7	5.491702E-3
1.689500E-7	5.464295E-3
1.690000E-7	5.454017E-3
1.690500E-7	5.419758E-3
1.691000E-7	5.351240E-3
1.691500E-7	5.306704E-3
1.692000E-7	5.289574E-3
1.692500E-7	5.255315E-3
1.693000E-7	5.248464E-3
1.693500E-7	5.299852E-3
1.694000E-7	5.344389E-3
1.694500E-7	5.378647E-3
1.695000E-7	5.443739E-3
1.695500E-7	5.508831E-3
1.696000E-7	5.570497E-3
1.696500E-7	5.635589E-3
1.697000E-7	5.686978E-3
1.697500E-7	5.700681E-3
1.698000E-7	5.686978E-3
1.698500E-7	5.659570E-3
1.699000E-7	5.615034E-3
1.699500E-7	5.556794E-3
1.700000E-7	5.471146E-3
1.700500E-7	5.361518E-3
1.701000E-7	5.282723E-3
1.701500E-7	5.245038E-3
1.702000E-7	5.221057E-3
1.702500E-7	5.224482E-3
1.703000E-7	5.248464E-3
1.703500E-7	5.269019E-3
1.704000E-7	5.289574E-3
1.704500E-7	5.327259E-3
1.705000E-7	5.364944E-3
1.705500E-7	5.378647E-3
1.706000E-7	5.399203E-3
1.706500E-7	5.430036E-3
1.707000E-7	5.436888E-3
1.707500E-7	5.412906E-3
1.708000E-7	5.392351E-3
1.708500E-7	5.375222E-3
1.709000E-7	5.344389E-3
1.709500E-7	5.330685E-3
1.710000E-7	5.347814E-3
1.710500E-7	5.375222E-3
1.711000E-7	5.385499E-3
1.711500E-7	5.395777E-3
1.712000E-7	5.416332E-3
1.712500E-7	5.423184E-3
1.713000E-7	5.423184E-3
1.713500E-7	5.447165E-3
1.714000E-7	5.477998E-3
1.714500E-7	5.501979E-3
1.715000E-7	5.519109E-3
1.715500E-7	5.529387E-3
1.716000E-7	5.512257E-3
1.716500E-7	5.501979E-3
1.717000E-7	5.505405E-3
1.717500E-7	5.484850E-3
1.718000E-7	5.450591E-3
1.718500E-7	5.447165E-3
1.719000E-7	5.447165E-3
1.719500E-7	5.412906E-3
1.720000E-7	5.388925E-3
1.720500E-7	5.392351E-3
1.721000E-7	5.388925E-3
1.721500E-7	5.368370E-3
1.722000E-7	5.354666E-3
1.722500E-7	5.344389E-3
1.723000E-7	5.334111E-3
1.723500E-7	5.327259E-3
1.724000E-7	5.299852E-3
1.724500E-7	5.251890E-3
1.725000E-7	5.210779E-3
1.725500E-7	5.176520E-3
1.726000E-7	5.142261E-3
1.726500E-7	5.108002E-3
1.727000E-7	5.060040E-3
1.727500E-7	5.005225E-3
1.728000E-7	4.967541E-3
1.728500E-7	4.943559E-3
1.729000E-7	4.912726E-3
1.729500E-7	4.892171E-3
1.730000E-7	4.892171E-3
1.730500E-7	4.895597E-3
1.731000E-7	4.899023E-3
1.731500E-7	4.926430E-3
1.732000E-7	4.970967E-3
1.732500E-7	4.998374E-3
1.733000E-7	5.012077E-3
1.733500E-7	5.022355E-3
1.734000E-7	5.008651E-3
1.734500E-7	4.981244E-3
1.735000E-7	4.981244E-3
1.735500E-7	4.991522E-3
1.736000E-7	4.967541E-3
1.736500E-7	4.946985E-3
1.737000E-7	4.957263E-3
1.737500E-7	4.953837E-3
1.738000E-7	4.964115E-3
1.738500E-7	5.018929E-3
1.739000E-7	5.073743E-3
1.739500E-7	5.121706E-3
1.740000E-7	5.210779E-3
1.740500E-7	5.282723E-3
1.741000E-7	5.293000E-3
1.741500E-7	5.310130E-3
1.742000E-7	5.347814E-3
1.742500E-7	5.340963E-3
1.743000E-7	5.293000E-3
1.743500E-7	5.255315E-3
1.744000E-7	5.193649E-3
1.744500E-7	5.101150E-3
1.745000E-7	5.018929E-3
1.745500E-7	4.950411E-3
1.746000E-7	4.878468E-3
1.746500E-7	4.813376E-3
1.747000E-7	4.758561E-3
1.747500E-7	4.700321E-3
1.748000E-7	4.659211E-3
1.748500E-7	4.635229E-3
1.749000E-7	4.628378E-3
1.749500E-7	4.648933E-3
1.750000E-7	4.672914E-3
1.750500E-7	4.690044E-3
1.751000E-7	4.717451E-3
1.751500E-7	4.758561E-3
1.752000E-7	4.796246E-3
1.752500E-7	4.833931E-3
1.753000E-7	4.892171E-3
1.753500E-7	4.940134E-3
1.754000E-7	4.960689E-3
1.754500E-7	4.984670E-3
1.755000E-7	4.991522E-3
1.755500E-7	4.964115E-3
1.756000E-7	4.950411E-3
1.756500E-7	4.936708E-3
1.757000E-7	4.912726E-3
1.757500E-7	4.902449E-3
1.758000E-7	4.905875E-3
1.758500E-7	4.909301E-3
1.759000E-7	4.936708E-3
1.759500E-7	4.984670E-3
1.760000E-7	5.001800E-3
1.760500E-7	5.005225E-3
1.761000E-7	5.029207E-3
1.761500E-7	5.046336E-3
1.762000E-7	5.025781E-3
1.762500E-7	5.022355E-3
1.763000E-7	5.036058E-3
1.763500E-7	5.005225E-3
1.764000E-7	4.967541E-3
1.764500E-7	4.960689E-3
1.765000E-7	4.957263E-3
1.765500E-7	4.943559E-3
1.766000E-7	4.957263E-3
1.766500E-7	4.970967E-3
1.767000E-7	4.970967E-3
1.767500E-7	5.001800E-3
1.768000E-7	5.032633E-3
1.768500E-7	5.029207E-3
1.769000E-7	5.012077E-3
1.769500E-7	4.988096E-3
1.770000E-7	4.960689E-3
1.770500E-7	4.929856E-3
1.771000E-7	4.899023E-3
1.771500E-7	4.868190E-3
1.772000E-7	4.861338E-3
1.772500E-7	4.878468E-3
1.773000E-7	4.895597E-3
1.773500E-7	4.919578E-3
1.774000E-7	4.943559E-3
1.774500E-7	4.970967E-3
1.775000E-7	4.994948E-3
1.775500E-7	5.015503E-3
1.776000E-7	5.005225E-3
1.776500E-7	4.957263E-3
1.777000E-7	4.892171E-3
1.777500E-7	4.827079E-3
1.778000E-7	4.751710E-3
1.778500E-7	4.669488E-3
1.779000E-7	4.590693E-3
1.779500E-7	4.518749E-3
1.780000E-7	4.467361E-3
1.780500E-7	4.463935E-3
1.781000E-7	4.491342E-3
1.781500E-7	4.508471E-3
1.782000E-7	4.549582E-3
1.782500E-7	4.621526E-3
1.783000E-7	4.696895E-3
1.783500E-7	4.768839E-3
1.784000E-7	4.851060E-3
1.784500E-7	4.905875E-3
1.785000E-7	4.940134E-3
1.785500E-7	5.001800E-3
1.786000E-7	5.039484E-3
1.786500E-7	5.053188E-3
1.787000E-7	5.053188E-3
1.787500E-7	5.018929E-3
1.788000E-7	4.936708E-3
1.788500E-7	4.851060E-3
1.789000E-7	4.761987E-3
1.789500E-7	4.631803E-3
1.790000E-7	4.498194E-3
1.790500E-7	4.395417E-3
1.791000E-7	4.296066E-3
1.791500E-7	4.193289E-3
1.792000E-7	4.135049E-3
1.792500E-7	4.128198E-3
1.793000E-7	4.138475E-3
1.793500E-7	4.179586E-3
1.794000E-7	4.254956E-3
1.794500E-7	4.326899E-3
1.795000E-7	4.398843E-3
1.795500E-7	4.505045E-3
1.796000E-7	4.587267E-3
1.796500E-7	4.631803E-3
1.797000E-7	4.683192E-3
1.797500E-7	4.734580E-3
1.798000E-7	4.761987E-3
1.798500E-7	4.772265E-3
1.799000E-7	4.789394E-3
1.799500E-7	4.799672E-3
1.800000E-7	4.782543E-3
1.800500E-7	4.772265E-3
1.801000E-7	4.772265E-3
1.801500E-7	4.748284E-3
1.802000E-7	4.710599E-3
1.802500E-7	4.683192E-3
1.803000E-7	4.655785E-3
1.803500E-7	4.621526E-3
1.804000E-7	4.590693E-3
1.804500E-7	4.583841E-3
1.805000E-7	4.590693E-3
1.805500E-7	4.590693E-3
1.806000E-7	4.604396E-3
1.806500E-7	4.604396E-3
1.807000E-7	4.618100E-3
1.807500E-7	4.652359E-3
1.808000E-7	4.659211E-3
1.808500E-7	4.631803E-3
1.809000E-7	4.621526E-3
1.809500E-7	4.594119E-3
1.810000E-7	4.546156E-3
1.810500E-7	4.542730E-3
1.811000E-7	4.559860E-3
1.811500E-7	4.535878E-3
1.812000E-7	4.511897E-3
1.812500E-7	4.529027E-3
1.813000E-7	4.542730E-3
1.813500E-7	4.532453E-3
1.814000E-7	4.518749E-3
1.814500E-7	4.494768E-3
1.815000E-7	4.460509E-3
1.815500E-7	4.443379E-3
1.816000E-7	4.419398E-3
1.816500E-7	4.385139E-3
1.817000E-7	4.364584E-3
1.817500E-7	4.340603E-3
1.818000E-7	4.306344E-3
1.818500E-7	4.282363E-3
1.819000E-7	4.265233E-3
1.819500E-7	4.244678E-3
1.820000E-7	4.248104E-3
1.820500E-7	4.248104E-3
1.821000E-7	4.241252E-3
1.821500E-7	4.258381E-3
1.822000E-7	4.278937E-3
1.822500E-7	4.278937E-3
1.823000E-7	4.272085E-3
1.823500E-7	4.272085E-3
1.824000E-7	4.282363E-3
1.824500E-7	4.292640E-3
1.825000E-7	4.306344E-3
1.825500E-7	4.306344E-3
1.826000E-7	4.306344E-3
1.826500E-7	4.333751E-3
1.827000E-7	4.344029E-3
1.827500E-7	4.330325E-3
1.828000E-7	4.344029E-3
1.828500E-7	4.368010E-3
1.829000E-7	4.340603E-3
1.829500E-7	4.292640E-3
1.830000E-7	4.289214E-3
1.830500E-7	4.323473E-3
1.831000E-7	4.357732E-3
1.831500E-7	4.378288E-3
1.832000E-7	4.405695E-3
1.832500E-7	4.457083E-3
1.833000E-7	4.487916E-3
1.833500E-7	4.494768E-3
1.834000E-7	4.525601E-3
1.834500E-7	4.563286E-3
1.835000E-7	4.566712E-3
1.835500E-7	4.539304E-3
1.836000E-7	4.505045E-3
1.836500E-7	4.443379E-3
1.837000E-7	4.368010E-3
1.837500E-7	4.302918E-3
1.838000E-7	4.244678E-3
1.838500E-7	4.169308E-3
1.839000E-7	4.104216E-3
1.839500E-7	4.076809E-3
1.840000E-7	4.059680E-3
1.840500E-7	4.032273E-3
1.841000E-7	3.998014E-3
1.841500E-7	3.998014E-3
1.842000E-7	4.028847E-3
1.842500E-7	4.052828E-3
1.843000E-7	4.059680E-3
1.843500E-7	4.104216E-3
1.844000E-7	4.159031E-3
1.844500E-7	4.200141E-3
1.845000E-7	4.251530E-3
1.845500E-7	4.309770E-3
1.846000E-7	4.350880E-3
1.846500E-7	4.388565E-3
1.847000E-7	4.426250E-3
1.847500E-7	4.419398E-3
1.848000E-7	4.378288E-3
1.848500E-7	4.323473E-3
1.849000E-7	4.268659E-3
1.849500E-7	4.203567E-3
1.850000E-7	4.128198E-3
1.850500E-7	4.035699E-3
1.851000E-7	3.950051E-3
1.851500E-7	3.884959E-3
1.852000E-7	3.847275E-3
1.852500E-7	3.819867E-3
1.853000E-7	3.789034E-3
1.853500E-7	3.782183E-3
1.854000E-7	3.795886E-3
1.854500E-7	3.795886E-3
1.855000E-7	3.806164E-3
1.855500E-7	3.843849E-3
1.856000E-7	3.881533E-3
1.856500E-7	3.912366E-3
1.857000E-7	3.915792E-3
1.857500E-7	3.898663E-3
1.858000E-7	3.871256E-3
1.858500E-7	3.867830E-3
1.859000E-7	3.884959E-3
1.859500E-7	3.905515E-3
1.860000E-7	3.908941E-3
1.860500E-7	3.926070E-3
1.861000E-7	3.950051E-3
1.861500E-7	3.960329E-3
1.862000E-7	3.950051E-3
1.862500E-7	3.943200E-3
1.863000E-7	3.950051E-3
1.863500E-7	3.974033E-3
1.864000E-7	3.994588E-3
1.864500E-7	4.004866E-3
1.865000E-7	4.001440E-3
1.865500E-7	4.004866E-3
1.866000E-7	4.028847E-3
1.866500E-7	4.049402E-3
1.867000E-7	4.059680E-3
1.867500E-7	4.059680E-3
1.868000E-7	4.052828E-3
1.868500E-7	4.056254E-3
1.869000E-7	4.069957E-3
1.869500E-7	4.056254E-3
1.870000E-7	4.011717E-3
1.870500E-7	3.980884E-3
1.871000E-7	3.956903E-3
1.871500E-7	3.912366E-3
1.872000E-7	3.874682E-3
1.872500E-7	3.878108E-3
1.873000E-7	3.895237E-3
1.873500E-7	3.915792E-3
1.874000E-7	3.950051E-3
1.874500E-7	3.974033E-3
1.875000E-7	3.984310E-3
1.875500E-7	4.025421E-3
1.876000E-7	4.093939E-3
1.876500E-7	4.152179E-3
1.877000E-7	4.200141E-3
1.877500E-7	4.241252E-3
1.878000E-7	4.282363E-3
1.878500E-7	4.306344E-3
1.879000E-7	4.316622E-3
1.879500E-7	4.299492E-3
1.880000E-7	4.272085E-3
1.880500E-7	4.237826E-3
1.881000E-7	4.203567E-3
1.881500E-7	4.165882E-3
1.882000E-7	4.124772E-3
1.882500E-7	4.080235E-3
1.883000E-7	4.039124E-3
1.883500E-7	3.980884E-3
1.884000E-7	3.902089E-3
1.884500E-7	3.850700E-3
1.885000E-7	3.840423E-3
1.885500E-7	3.809590E-3
1.886000E-7	3.771905E-3
1.886500E-7	3.758201E-3
1.887000E-7	3.744498E-3
1.887500E-7	3.744498E-3
1.888000E-7	3.761627E-3
1.888500E-7	3.768479E-3
1.889000E-7	3.775331E-3
1.889500E-7	3.802738E-3
1.890000E-7	3.830145E-3
1.890500E-7	3.816442E-3
1.891000E-7	3.765053E-3
1.891500E-7	3.713665E-3
1.892000E-7	3.672554E-3
1.892500E-7	3.617740E-3
1.893000E-7	3.549222E-3
1.893500E-7	3.484130E-3
1.894000E-7	3.432742E-3
1.894500E-7	3.395057E-3
1.895000E-7	3.395057E-3
1.895500E-7	3.419038E-3
1.896000E-7	3.443020E-3
1.896500E-7	3.497834E-3
1.897000E-7	3.576629E-3
1.897500E-7	3.641721E-3
1.898000E-7	3.686258E-3
1.898500E-7	3.720517E-3
1.899000E-7	3.751350E-3
1.899500E-7	3.741072E-3
1.900000E-7	3.720517E-3
1.900500E-7	3.693110E-3
1.901000E-7	3.651999E-3
1.901500E-7	3.600610E-3
1.902000E-7	3.566352E-3
1.902500E-7	3.569777E-3
1.903000E-7	3.604036E-3
1.903500E-7	3.631444E-3
1.904000E-7	3.658851E-3
1.904500E-7	3.744498E-3
1.905000E-7	3.847275E-3
1.905500E-7	3.926070E-3
1.906000E-7	4.018569E-3
1.906500E-7	4.117920E-3
1.907000E-7	4.155605E-3
1.907500E-7	4.155605E-3
1.908000E-7	4.169308E-3
1.908500E-7	4.155605E-3
1.909000E-7	4.107642E-3
1.909500E-7	4.069957E-3
1.910000E-7	4.021995E-3
1.910500E-7	3.953477E-3
1.911000E-7	3.912366E-3
1.911500E-7	3.898663E-3
1.912000E-7	3.878108E-3
1.912500E-7	3.867830E-3
1.913000E-7	3.884959E-3
1.913500E-7	3.905515E-3
1.914000E-7	3.905515E-3
1.914500E-7	3.922644E-3
1.915000E-7	3.939774E-3
1.915500E-7	3.929496E-3
1.916000E-7	3.919218E-3
1.916500E-7	3.905515E-3
1.917000E-7	3.857552E-3
1.917500E-7	3.816442E-3
1.918000E-7	3.795886E-3
1.918500E-7	3.775331E-3
1.919000E-7	3.754776E-3
1.919500E-7	3.744498E-3
1.920000E-7	3.741072E-3
1.920500E-7	3.741072E-3
1.921000E-7	3.765053E-3
1.921500E-7	3.789034E-3
1.922000E-7	3.792460E-3
1.922500E-7	3.792460E-3
1.923000E-7	3.813016E-3
1.923500E-7	3.826719E-3
1.924000E-7	3.813016E-3
1.924500E-7	3.802738E-3
1.925000E-7	3.792460E-3
1.925500E-7	3.758201E-3
1.926000E-7	3.706813E-3
1.926500E-7	3.658851E-3
1.927000E-7	3.634869E-3
1.927500E-7	3.624592E-3
1.928000E-7	3.617740E-3
1.928500E-7	3.645147E-3
1.929000E-7	3.686258E-3
1.929500E-7	3.720517E-3
1.930000E-7	3.771905E-3
1.930500E-7	3.850700E-3
1.931000E-7	3.908941E-3
1.931500E-7	3.960329E-3
1.932000E-7	4.025421E-3
1.932500E-7	4.056254E-3
1.933000E-7	4.025421E-3
1.933500E-7	4.004866E-3
1.934000E-7	3.980884E-3
1.934500E-7	3.919218E-3
1.935000E-7	3.840423E-3
1.935500E-7	3.771905E-3
1.936000E-7	3.699961E-3
1.936500E-7	3.658851E-3
1.937000E-7	3.645147E-3
1.937500E-7	3.617740E-3
1.938000E-7	3.580055E-3
1.938500E-7	3.573203E-3
1.939000E-7	3.559500E-3
1.939500E-7	3.535519E-3
1.940000E-7	3.538944E-3
1.940500E-7	3.538944E-3
1.941000E-7	3.511537E-3
1.941500E-7	3.484130E-3
1.942000E-7	3.480704E-3
1.942500E-7	3.460149E-3
1.943000E-7	3.432742E-3
1.943500E-7	3.425890E-3
1.944000E-7	3.419038E-3
1.944500E-7	3.429316E-3
1.945000E-7	3.456723E-3
1.945500E-7	3.473853E-3
1.946000E-7	3.480704E-3
1.946500E-7	3.508111E-3
1.947000E-7	3.552648E-3
1.947500E-7	3.597185E-3
1.948000E-7	3.645147E-3
1.948500E-7	3.699961E-3
1.949000E-7	3.723943E-3
1.949500E-7	3.727368E-3
1.950000E-7	3.730794E-3
1.950500E-7	3.741072E-3
1.951000E-7	3.730794E-3
1.951500E-7	3.699961E-3
1.952000E-7	3.658851E-3
1.952500E-7	3.617740E-3
1.953000E-7	3.566352E-3
1.953500E-7	3.514963E-3
1.954000E-7	3.490982E-3
1.954500E-7	3.473853E-3
1.955000E-7	3.467001E-3
1.955500E-7	3.497834E-3
1.956000E-7	3.545796E-3
1.956500E-7	3.586907E-3
1.957000E-7	3.628018E-3
1.957500E-7	3.679406E-3
1.958000E-7	3.730794E-3
1.958500E-7	3.778757E-3
1.959000E-7	3.816442E-3
1.959500E-7	3.840423E-3
1.960000E-7	3.864404E-3
1.960500E-7	3.888385E-3
1.961000E-7	3.888385E-3
1.961500E-7	3.888385E-3
1.962000E-7	3.888385E-3
1.962500E-7	3.878108E-3
1.963000E-7	3.871256E-3
1.963500E-7	3.874682E-3
1.964000E-7	3.860978E-3
1.964500E-7	3.816442E-3
1.965000E-7	3.778757E-3
1.965500E-7	3.747924E-3
1.966000E-7	3.699961E-3
1.966500E-7	3.628018E-3
1.967000E-7	3.562926E-3
1.967500E-7	3.490982E-3
1.968000E-7	3.429316E-3
1.968500E-7	3.398483E-3
1.969000E-7	3.371076E-3
1.969500E-7	3.312836E-3
1.970000E-7	3.258021E-3
1.970500E-7	3.254596E-3
1.971000E-7	3.288854E-3
1.971500E-7	3.329965E-3
1.972000E-7	3.384779E-3
1.972500E-7	3.429316E-3
1.973000E-7	3.460149E-3
1.973500E-7	3.504686E-3
1.974000E-7	3.562926E-3
1.974500E-7	3.600610E-3
1.975000E-7	3.628018E-3
1.975500E-7	3.658851E-3
1.976000E-7	3.679406E-3
1.976500E-7	3.675980E-3
1.977000E-7	3.651999E-3
1.977500E-7	3.624592E-3
1.978000E-7	3.590333E-3
1.978500E-7	3.556074E-3
1.979000E-7	3.501260E-3
1.979500E-7	3.446445E-3
1.980000E-7	3.405335E-3
1.980500E-7	3.374502E-3
1.981000E-7	3.347095E-3
1.981500E-7	3.333391E-3
1.982000E-7	3.316262E-3
1.982500E-7	3.299132E-3
1.983000E-7	3.295706E-3
1.983500E-7	3.305984E-3
1.984000E-7	3.323113E-3
1.984500E-7	3.340243E-3
1.985000E-7	3.377928E-3
1.985500E-7	3.405335E-3
1.986000E-7	3.429316E-3
1.986500E-7	3.480704E-3
1.987000E-7	3.521815E-3
1.987500E-7	3.535519E-3
1.988000E-7	3.552648E-3
1.988500E-7	3.583481E-3
1.989000E-7	3.610888E-3
1.989500E-7	3.604036E-3
1.990000E-7	3.593759E-3
1.990500E-7	3.580055E-3
1.991000E-7	3.549222E-3
1.991500E-7	3.508111E-3
1.992000E-7	3.467001E-3
1.992500E-7	3.401909E-3
1.993000E-7	3.329965E-3
1.993500E-7	3.278577E-3
1.994000E-7	3.203207E-3
1.994500E-7	3.110708E-3
1.995000E-7	3.059320E-3
1.995500E-7	3.038765E-3
1.996000E-7	3.025061E-3
1.996500E-7	3.035339E-3
1.997000E-7	3.059320E-3
1.997500E-7	3.069598E-3
1.998000E-7	3.073023E-3
1.998500E-7	3.093579E-3
1.999000E-7	3.138115E-3
1.999500E-7	3.179226E-3
2.000000E-7	3.192930E-3
2.000500E-7	3.186078E-3
