Study Name	V_single_crystal
Sample Name	0dpa
Run Name	45degreesSpot5
Operator	Angus Wylie
Date	8/5/2019
Time	14:53
Sign	FIX
Grating Spacing	06.40um
Channel	3
Number Traces	10000
Files in Batch	1
Batch Number	1
dt	50.000001E-12
time stamp (ms)	14:55:19
	
Time	Amplitude
0.000000E+0	-7.879547E-5
5.000000E-11	-7.194369E-5
1.000000E-10	-1.027767E-4
1.500000E-10	-1.267579E-4
2.000000E-10	-8.222136E-5
2.500000E-10	-2.740712E-5
3.000000E-10	6.851780E-6
3.500000E-10	6.166602E-5
4.000000E-10	1.096285E-4
4.500000E-10	1.233320E-4
5.000000E-10	1.712945E-4
5.500000E-10	2.295346E-4
6.000000E-10	2.329605E-4
6.500000E-10	2.055534E-4
7.000000E-10	2.089793E-4
7.500000E-10	1.952757E-4
8.000000E-10	1.849981E-4
8.500000E-10	1.918498E-4
9.000000E-10	1.747204E-4
9.500000E-10	1.164803E-4
1.000000E-9	1.062026E-4
1.050000E-9	1.233320E-4
1.100000E-9	9.249903E-5
1.150000E-9	4.796246E-5
1.200000E-9	3.425890E-6
1.250000E-9	-7.536958E-5
1.300000E-9	-1.644427E-4
1.350000E-9	-2.363864E-4
1.400000E-9	-3.083301E-4
1.450000E-9	-3.802738E-4
1.500000E-9	-4.111068E-4
1.550000E-9	-4.419398E-4
1.600000E-9	-4.761987E-4
1.650000E-9	-4.624952E-4
1.700000E-9	-4.282363E-4
1.750000E-9	-4.145327E-4
1.800000E-9	-3.836997E-4
1.850000E-9	-3.323113E-4
1.900000E-9	-3.014783E-4
1.950000E-9	-2.774971E-4
2.000000E-9	-2.398123E-4
2.050000E-9	-2.329605E-4
2.100000E-9	-2.329605E-4
2.150000E-9	-1.987016E-4
2.200000E-9	-1.473133E-4
2.250000E-9	-1.062026E-4
2.300000E-9	-7.194369E-5
2.350000E-9	-2.398123E-5
2.400000E-9	5.481424E-5
2.450000E-9	1.301838E-4
2.500000E-9	1.610168E-4
2.550000E-9	1.815722E-4
2.600000E-9	2.295346E-4
2.650000E-9	2.500900E-4
2.700000E-9	2.398123E-4
2.750000E-9	2.261087E-4
2.800000E-9	2.021275E-4
2.850000E-9	1.644427E-4
2.900000E-9	1.575909E-4
2.950000E-9	1.678686E-4
3.000000E-9	1.781463E-4
3.050000E-9	2.021275E-4
3.100000E-9	2.603676E-4
3.150000E-9	3.117560E-4
3.200000E-9	3.460149E-4
3.250000E-9	3.768479E-4
3.300000E-9	3.836997E-4
3.350000E-9	3.494408E-4
3.400000E-9	3.220337E-4
3.450000E-9	3.014783E-4
3.500000E-9	2.535159E-4
3.550000E-9	1.952757E-4
3.600000E-9	1.370356E-4
3.650000E-9	7.194369E-5
3.700000E-9	0.000000E+0
3.750000E-9	-6.166602E-5
3.800000E-9	-1.130544E-4
3.850000E-9	-1.541651E-4
3.900000E-9	-1.815722E-4
3.950000E-9	-1.952757E-4
4.000000E-9	-1.987016E-4
4.050000E-9	-1.884240E-4
4.100000E-9	-1.678686E-4
4.150000E-9	-1.473133E-4
4.200000E-9	-1.130544E-4
4.250000E-9	-6.851780E-5
4.300000E-9	-4.796246E-5
4.350000E-9	-3.083301E-5
4.400000E-9	1.712945E-5
4.450000E-9	7.879547E-5
4.500000E-9	1.164803E-4
4.550000E-9	1.370356E-4
4.600000E-9	1.404615E-4
4.650000E-9	1.301838E-4
4.700000E-9	1.164803E-4
4.750000E-9	1.096285E-4
4.800000E-9	9.592492E-5
4.850000E-9	3.083301E-5
4.900000E-9	-4.111068E-5
4.950000E-9	-8.222136E-5
5.000000E-9	-1.301838E-4
5.050000E-9	-1.918498E-4
5.100000E-9	-2.124052E-4
5.150000E-9	-1.987016E-4
5.200000E-9	-1.747204E-4
5.250000E-9	-1.404615E-4
5.300000E-9	-8.907314E-5
5.350000E-9	-3.768479E-5
5.400000E-9	1.712945E-5
5.450000E-9	6.851780E-5
5.500000E-9	1.062026E-4
5.550000E-9	1.233320E-4
5.600000E-9	1.336097E-4
5.650000E-9	1.130544E-4
5.700000E-9	4.796246E-5
5.750000E-9	-2.398123E-5
5.800000E-9	-7.194369E-5
5.850000E-9	-1.301838E-4
5.900000E-9	-1.678686E-4
5.950000E-9	-1.678686E-4
6.000000E-9	-1.473133E-4
6.050000E-9	-1.267579E-4
6.100000E-9	-8.222136E-5
6.150000E-9	-6.851780E-6
6.200000E-9	7.536958E-5
6.250000E-9	1.473133E-4
6.300000E-9	1.918498E-4
6.350000E-9	2.021275E-4
6.400000E-9	2.124052E-4
6.450000E-9	2.466641E-4
6.500000E-9	2.603676E-4
6.550000E-9	2.329605E-4
6.600000E-9	2.021275E-4
6.650000E-9	1.747204E-4
6.700000E-9	1.404615E-4
6.750000E-9	1.336097E-4
6.800000E-9	1.507392E-4
6.850000E-9	1.747204E-4
6.900000E-9	2.535159E-4
6.950000E-9	3.939774E-4
7.000000E-9	5.481424E-4
7.050000E-9	7.673994E-4
7.100000E-9	1.157951E-3
7.150000E-9	1.716371E-3
7.200000E-9	2.446086E-3
7.250000E-9	3.484130E-3
7.300000E-9	4.943559E-3
7.350000E-9	6.865484E-3
7.400000E-9	9.338976E-3
7.450000E-9	1.241200E-2
7.500000E-9	1.605372E-2
7.550000E-9	2.024701E-2
7.600000E-9	2.494733E-2
7.650000E-9	2.999709E-2
7.700000E-9	3.521472E-2
7.750000E-9	4.042208E-2
7.800000E-9	4.542388E-2
7.850000E-9	5.003170E-2
7.900000E-9	5.411879E-2
7.950000E-9	5.758579E-2
8.000000E-9	6.037446E-2
8.050000E-9	6.253620E-2
8.100000E-9	6.418063E-2
8.150000E-9	6.538996E-2
8.200000E-9	6.631153E-2
8.250000E-9	6.716800E-2
8.300000E-9	6.811355E-2
8.350000E-9	6.923724E-2
8.400000E-9	7.064528E-2
8.450000E-9	7.236850E-2
8.500000E-9	7.433839E-2
8.550000E-9	7.650698E-2
8.600000E-9	7.876807E-2
8.650000E-9	8.092980E-2
8.700000E-9	8.286200E-2
8.750000E-9	8.449615E-2
8.800000E-9	8.569521E-2
8.850000E-9	8.632558E-2
8.900000E-9	8.634956E-2
8.950000E-9	8.577058E-2
9.000000E-9	8.458865E-2
9.050000E-9	8.287228E-2
9.100000E-9	8.070369E-2
9.150000E-9	7.815140E-2
9.200000E-9	7.534903E-2
9.250000E-9	7.239934E-2
9.300000E-9	6.934344E-2
9.350000E-9	6.627727E-2
9.400000E-9	6.334471E-2
9.450000E-9	6.058687E-2
9.500000E-9	5.803458E-2
9.550000E-9	5.573238E-2
9.600000E-9	5.369398E-2
9.650000E-9	5.194335E-2
9.700000E-9	5.051132E-2
9.750000E-9	4.934652E-2
9.800000E-9	4.839070E-2
9.850000E-9	4.765071E-2
9.900000E-9	4.712997E-2
9.950000E-9	4.678396E-2
1.000000E-8	4.658183E-2
1.005000E-8	4.646877E-2
1.010000E-8	4.643109E-2
1.015000E-8	4.650303E-2
1.020000E-8	4.665720E-2
1.025000E-8	4.686618E-2
1.030000E-8	4.717793E-2
1.035000E-8	4.759932E-2
1.040000E-8	4.813033E-2
1.045000E-8	4.879495E-2
1.050000E-8	4.963087E-2
1.055000E-8	5.062780E-2
1.060000E-8	5.179946E-2
1.065000E-8	5.316981E-2
1.070000E-8	5.471489E-2
1.075000E-8	5.640728E-2
1.080000E-8	5.824356E-2
1.085000E-8	6.015520E-2
1.090000E-8	6.206000E-2
1.095000E-8	6.394081E-2
1.100000E-8	6.575311E-2
1.105000E-8	6.740096E-2
1.110000E-8	6.881243E-2
1.115000E-8	6.999093E-2
1.120000E-8	7.089880E-2
1.125000E-8	7.152573E-2
1.130000E-8	7.186832E-2
1.135000E-8	7.187860E-2
1.140000E-8	7.160453E-2
1.145000E-8	7.112833E-2
1.150000E-8	7.041575E-2
1.155000E-8	6.947020E-2
1.160000E-8	6.839790E-2
1.165000E-8	6.719541E-2
1.170000E-8	6.580450E-2
1.175000E-8	6.430053E-2
1.180000E-8	6.278629E-2
1.185000E-8	6.118640E-2
1.190000E-8	5.949401E-2
1.195000E-8	5.781875E-2
1.200000E-8	5.615376E-2
1.205000E-8	5.444767E-2
1.210000E-8	5.279982E-2
1.215000E-8	5.127187E-2
1.220000E-8	4.977818E-2
1.225000E-8	4.830505E-2
1.230000E-8	4.696210E-2
1.235000E-8	4.573563E-2
1.240000E-8	4.456398E-2
1.245000E-8	4.350880E-2
1.250000E-8	4.263178E-2
1.255000E-8	4.188836E-2
1.260000E-8	4.128198E-2
1.265000E-8	4.087772E-2
1.270000E-8	4.066874E-2
1.275000E-8	4.065504E-2
1.280000E-8	4.087772E-2
1.285000E-8	4.132994E-2
1.290000E-8	4.199456E-2
1.295000E-8	4.287844E-2
1.300000E-8	4.396787E-2
1.305000E-8	4.522860E-2
1.310000E-8	4.660923E-2
1.315000E-8	4.807894E-2
1.320000E-8	4.965828E-2
1.325000E-8	5.129243E-2
1.330000E-8	5.290945E-2
1.335000E-8	5.451619E-2
1.340000E-8	5.613321E-2
1.345000E-8	5.771254E-2
1.350000E-8	5.919596E-2
1.355000E-8	6.057316E-2
1.360000E-8	6.184417E-2
1.365000E-8	6.299527E-2
1.370000E-8	6.400248E-2
1.375000E-8	6.481099E-2
1.380000E-8	6.538311E-2
1.385000E-8	6.574968E-2
1.390000E-8	6.591413E-2
1.395000E-8	6.585589E-2
1.400000E-8	6.556811E-2
1.405000E-8	6.508506E-2
1.410000E-8	6.442044E-2
1.415000E-8	6.356054E-2
1.420000E-8	6.252592E-2
1.425000E-8	6.137825E-2
1.430000E-8	6.010724E-2
1.435000E-8	5.867865E-2
1.440000E-8	5.716098E-2
1.445000E-8	5.560905E-2
1.450000E-8	5.397490E-2
1.455000E-8	5.224140E-2
1.460000E-8	5.050105E-2
1.465000E-8	4.878468E-2
1.470000E-8	4.705803E-2
1.475000E-8	4.535536E-2
1.480000E-8	4.374862E-2
1.485000E-8	4.227548E-2
1.490000E-8	4.094624E-2
1.495000E-8	3.977116E-2
1.500000E-8	3.879135E-2
1.505000E-8	3.806164E-2
1.510000E-8	3.755461E-2
1.515000E-8	3.724285E-2
1.520000E-8	3.716406E-2
1.525000E-8	3.732507E-2
1.530000E-8	3.762655E-2
1.535000E-8	3.806849E-2
1.540000E-8	3.871941E-2
1.545000E-8	3.954848E-2
1.550000E-8	4.047004E-2
1.555000E-8	4.147725E-2
1.560000E-8	4.262835E-2
1.565000E-8	4.392676E-2
1.570000E-8	4.530740E-2
1.575000E-8	4.671886E-2
1.580000E-8	4.819200E-2
1.585000E-8	4.975078E-2
1.590000E-8	5.131298E-2
1.595000E-8	5.283408E-2
1.600000E-8	5.433119E-2
1.605000E-8	5.578719E-2
1.610000E-8	5.714042E-2
1.615000E-8	5.836689E-2
1.620000E-8	5.945975E-2
1.625000E-8	6.037446E-2
1.630000E-8	6.109732E-2
1.635000E-8	6.165232E-2
1.640000E-8	6.200861E-2
1.645000E-8	6.214907E-2
1.650000E-8	6.210796E-2
1.655000E-8	6.186815E-2
1.660000E-8	6.140223E-2
1.665000E-8	6.075474E-2
1.670000E-8	5.992910E-2
1.675000E-8	5.891503E-2
1.680000E-8	5.775023E-2
1.685000E-8	5.646552E-2
1.690000E-8	5.503692E-2
1.695000E-8	5.348842E-2
1.700000E-8	5.188853E-2
1.705000E-8	5.025781E-2
1.710000E-8	4.859283E-2
1.715000E-8	4.692099E-2
1.720000E-8	4.530054E-2
1.725000E-8	4.372806E-2
1.730000E-8	4.220697E-2
1.735000E-8	4.077494E-2
1.740000E-8	3.945598E-2
1.745000E-8	3.825691E-2
1.750000E-8	3.718119E-2
1.755000E-8	3.626305E-2
1.760000E-8	3.551963E-2
1.765000E-8	3.494065E-2
1.770000E-8	3.452269E-2
1.775000E-8	3.432057E-2
1.780000E-8	3.434455E-2
1.785000E-8	3.455010E-2
1.790000E-8	3.495436E-2
1.795000E-8	3.557444E-2
1.800000E-8	3.639666E-2
1.805000E-8	3.739702E-2
1.810000E-8	3.857552E-2
1.815000E-8	3.990819E-2
1.820000E-8	4.135735E-2
1.825000E-8	4.290585E-2
1.830000E-8	4.451259E-2
1.835000E-8	4.613989E-2
1.840000E-8	4.777404E-2
1.845000E-8	4.938421E-2
1.850000E-8	5.091900E-2
1.855000E-8	5.235103E-2
1.860000E-8	5.371796E-2
1.865000E-8	5.498896E-2
1.870000E-8	5.609210E-2
1.875000E-8	5.701024E-2
1.880000E-8	5.779477E-2
1.885000E-8	5.843883E-2
1.890000E-8	5.888077E-2
1.895000E-8	5.913429E-2
1.900000E-8	5.923021E-2
1.905000E-8	5.913086E-2
1.910000E-8	5.880540E-2
1.915000E-8	5.830522E-2
1.920000E-8	5.762005E-2
1.925000E-8	5.672931E-2
1.930000E-8	5.565358E-2
1.935000E-8	5.442369E-2
1.940000E-8	5.306361E-2
1.945000E-8	5.159733E-2
1.950000E-8	5.001800E-2
1.955000E-8	4.834274E-2
1.960000E-8	4.663664E-2
1.965000E-8	4.492712E-2
1.970000E-8	4.320733E-2
1.975000E-8	4.152179E-2
1.980000E-8	3.991847E-2
1.985000E-8	3.841451E-2
1.990000E-8	3.704072E-2
1.995000E-8	3.581426E-2
2.000000E-8	3.474538E-2
2.005000E-8	3.386492E-2
2.010000E-8	3.319345E-2
2.015000E-8	3.271040E-2
2.020000E-8	3.242948E-2
2.025000E-8	3.237466E-2
2.030000E-8	3.251855E-2
2.035000E-8	3.286799E-2
2.040000E-8	3.342298E-2
2.045000E-8	3.414585E-2
2.050000E-8	3.500232E-2
2.055000E-8	3.600953E-2
2.060000E-8	3.714693E-2
2.065000E-8	3.837340E-2
2.070000E-8	3.969236E-2
2.075000E-8	4.106272E-2
2.080000E-8	4.246048E-2
2.085000E-8	4.390278E-2
2.090000E-8	4.535878E-2
2.095000E-8	4.677025E-2
2.100000E-8	4.815089E-2
2.105000E-8	4.951439E-2
2.110000E-8	5.080252E-2
2.115000E-8	5.196390E-2
2.120000E-8	5.303963E-2
2.125000E-8	5.402286E-2
2.130000E-8	5.485535E-2
2.135000E-8	5.553025E-2
2.140000E-8	5.605441E-2
2.145000E-8	5.639700E-2
2.150000E-8	5.653404E-2
2.155000E-8	5.645524E-2
2.160000E-8	5.612978E-2
2.165000E-8	5.557136E-2
2.170000E-8	5.483480E-2
2.175000E-8	5.389268E-2
2.180000E-8	5.272445E-2
2.185000E-8	5.138493E-2
2.190000E-8	4.992550E-2
2.195000E-8	4.835301E-2
2.200000E-8	4.672229E-2
2.205000E-8	4.505731E-2
2.210000E-8	4.335464E-2
2.215000E-8	4.165197E-2
2.220000E-8	4.000069E-2
2.225000E-8	3.840765E-2
2.230000E-8	3.687971E-2
2.235000E-8	3.543056E-2
2.240000E-8	3.406363E-2
2.245000E-8	3.280290E-2
2.250000E-8	3.166550E-2
2.255000E-8	3.065144E-2
2.260000E-8	2.978126E-2
2.265000E-8	2.909608E-2
2.270000E-8	2.859933E-2
2.275000E-8	2.829785E-2
2.280000E-8	2.821906E-2
2.285000E-8	2.835267E-2
2.290000E-8	2.869868E-2
2.295000E-8	2.925710E-2
2.300000E-8	3.002450E-2
2.305000E-8	3.098718E-2
2.310000E-8	3.211429E-2
2.315000E-8	3.338187E-2
2.320000E-8	3.475908E-2
2.325000E-8	3.622194E-2
2.330000E-8	3.774646E-2
2.335000E-8	3.930866E-2
2.340000E-8	4.090855E-2
2.345000E-8	4.250844E-2
2.350000E-8	4.404667E-2
2.355000E-8	4.553351E-2
2.360000E-8	4.697581E-2
2.365000E-8	4.833588E-2
2.370000E-8	4.955207E-2
2.375000E-8	5.061753E-2
2.380000E-8	5.154937E-2
2.385000E-8	5.234075E-2
2.390000E-8	5.293000E-2
2.395000E-8	5.331713E-2
2.400000E-8	5.351583E-2
2.405000E-8	5.349185E-2
2.410000E-8	5.323491E-2
2.415000E-8	5.279639E-2
2.420000E-8	5.216945E-2
2.425000E-8	5.135067E-2
2.430000E-8	5.035031E-2
2.435000E-8	4.921634E-2
2.440000E-8	4.795218E-2
2.445000E-8	4.655442E-2
2.450000E-8	4.505388E-2
2.455000E-8	4.348482E-2
2.460000E-8	4.186780E-2
2.465000E-8	4.023365E-2
2.470000E-8	3.860293E-2
2.475000E-8	3.699276E-2
2.480000E-8	3.544426E-2
2.485000E-8	3.398826E-2
2.490000E-8	3.259734E-2
2.495000E-8	3.130236E-2
2.500000E-8	3.015811E-2
2.505000E-8	2.920914E-2
2.510000E-8	2.842118E-2
2.515000E-8	2.779425E-2
2.520000E-8	2.737286E-2
2.525000E-8	2.713305E-2
2.530000E-8	2.703370E-2
2.535000E-8	2.710564E-2
2.540000E-8	2.737629E-2
2.545000E-8	2.782508E-2
2.550000E-8	2.840748E-2
2.555000E-8	2.912692E-2
2.560000E-8	3.000052E-2
2.565000E-8	3.101116E-2
2.570000E-8	3.216911E-2
2.575000E-8	3.347095E-2
2.580000E-8	3.486186E-2
2.585000E-8	3.631101E-2
2.590000E-8	3.785609E-2
2.595000E-8	3.945598E-2
2.600000E-8	4.104559E-2
2.605000E-8	4.262835E-2
2.610000E-8	4.417685E-2
2.615000E-8	4.562258E-2
2.620000E-8	4.693127E-2
2.625000E-8	4.809950E-2
2.630000E-8	4.909986E-2
2.635000E-8	4.992550E-2
2.640000E-8	5.057984E-2
2.645000E-8	5.102521E-2
2.650000E-8	5.124104E-2
2.655000E-8	5.127187E-2
2.660000E-8	5.112113E-2
2.665000E-8	5.077169E-2
2.670000E-8	5.024410E-2
2.675000E-8	4.955550E-2
2.680000E-8	4.870588E-2
2.685000E-8	4.770895E-2
2.690000E-8	4.658183E-2
2.695000E-8	4.531767E-2
2.700000E-8	4.394389E-2
2.705000E-8	4.248104E-2
2.710000E-8	4.093253E-2
2.715000E-8	3.931551E-2
2.720000E-8	3.767109E-2
2.725000E-8	3.603694E-2
2.730000E-8	3.441307E-2
2.735000E-8	3.284058E-2
2.740000E-8	3.137773E-2
2.745000E-8	3.003135E-2
2.750000E-8	2.878090E-2
2.755000E-8	2.769490E-2
2.760000E-8	2.679046E-2
2.765000E-8	2.605389E-2
2.770000E-8	2.551946E-2
2.775000E-8	2.519057E-2
2.780000E-8	2.502270E-2
2.785000E-8	2.502613E-2
2.790000E-8	2.524196E-2
2.795000E-8	2.566677E-2
2.800000E-8	2.623889E-2
2.805000E-8	2.696861E-2
2.810000E-8	2.788675E-2
2.815000E-8	2.895905E-2
2.820000E-8	3.014783E-2
2.825000E-8	3.144282E-2
2.830000E-8	3.284058E-2
2.835000E-8	3.432057E-2
2.840000E-8	3.583138E-2
2.845000E-8	3.736618E-2
2.850000E-8	3.888043E-2
2.855000E-8	4.036041E-2
2.860000E-8	4.177873E-2
2.865000E-8	4.310798E-2
2.870000E-8	4.433444E-2
2.875000E-8	4.544443E-2
2.880000E-8	4.640711E-2
2.885000E-8	4.724645E-2
2.890000E-8	4.795561E-2
2.895000E-8	4.848320E-2
2.900000E-8	4.883949E-2
2.905000E-8	4.902449E-2
2.910000E-8	4.902106E-2
2.915000E-8	4.881893E-2
2.920000E-8	4.842838E-2
2.925000E-8	4.785283E-2
2.930000E-8	4.708201E-2
2.935000E-8	4.614331E-2
2.940000E-8	4.505388E-2
2.945000E-8	4.381371E-2
2.950000E-8	4.244335E-2
2.955000E-8	4.100790E-2
2.960000E-8	3.953477E-2
2.965000E-8	3.803766E-2
2.970000E-8	3.653369E-2
2.975000E-8	3.504000E-2
2.980000E-8	3.358743E-2
2.985000E-8	3.218966E-2
2.990000E-8	3.084671E-2
2.995000E-8	2.960312E-2
3.000000E-8	2.849998E-2
3.005000E-8	2.749277E-2
3.010000E-8	2.653694E-2
3.015000E-8	2.572158E-2
3.020000E-8	2.509122E-2
3.025000E-8	2.459789E-2
3.030000E-8	2.427586E-2
3.035000E-8	2.414910E-2
3.040000E-8	2.420049E-2
3.045000E-8	2.443687E-2
3.050000E-8	2.488909E-2
3.055000E-8	2.554344E-2
3.060000E-8	2.636908E-2
3.065000E-8	2.732833E-2
3.070000E-8	2.842804E-2
3.075000E-8	2.966821E-2
3.080000E-8	3.099060E-2
3.085000E-8	3.234725E-2
3.090000E-8	3.374159E-2
3.095000E-8	3.515991E-2
3.100000E-8	3.655767E-2
3.105000E-8	3.793488E-2
3.110000E-8	3.927783E-2
3.115000E-8	4.051800E-2
3.120000E-8	4.166568E-2
3.125000E-8	4.273113E-2
3.130000E-8	4.369038E-2
3.135000E-8	4.451602E-2
3.140000E-8	4.519434E-2
3.145000E-8	4.571850E-2
3.150000E-8	4.607822E-2
3.155000E-8	4.626665E-2
3.160000E-8	4.628720E-2
3.165000E-8	4.614331E-2
3.170000E-8	4.581100E-2
3.175000E-8	4.530054E-2
3.180000E-8	4.465305E-2
3.185000E-8	4.385825E-2
3.190000E-8	4.290585E-2
3.195000E-8	4.182669E-2
3.200000E-8	4.067217E-2
3.205000E-8	3.944227E-2
3.210000E-8	3.812331E-2
3.215000E-8	3.674952E-2
3.220000E-8	3.535519E-2
3.225000E-8	3.393687E-2
3.230000E-8	3.250827E-2
3.235000E-8	3.111736E-2
3.240000E-8	2.975728E-2
3.245000E-8	2.842804E-2
3.250000E-8	2.716731E-2
3.255000E-8	2.601964E-2
3.260000E-8	2.497474E-2
3.265000E-8	2.408058E-2
3.270000E-8	2.334744E-2
3.275000E-8	2.277189E-2
3.280000E-8	2.239162E-2
3.285000E-8	2.223745E-2
3.290000E-8	2.226829E-2
3.295000E-8	2.251495E-2
3.300000E-8	2.298772E-2
3.305000E-8	2.362836E-2
3.310000E-8	2.440262E-2
3.315000E-8	2.534131E-2
3.320000E-8	2.643074E-2
3.325000E-8	2.762638E-2
3.330000E-8	2.892136E-2
3.335000E-8	3.030200E-2
3.340000E-8	3.172374E-2
3.345000E-8	3.317632E-2
3.350000E-8	3.465288E-2
3.355000E-8	3.610203E-2
3.360000E-8	3.747924E-2
3.365000E-8	3.878108E-2
3.370000E-8	3.999384E-2
3.375000E-8	4.110383E-2
3.380000E-8	4.208363E-2
3.385000E-8	4.294011E-2
3.390000E-8	4.364241E-2
3.395000E-8	4.416315E-2
3.400000E-8	4.451944E-2
3.405000E-8	4.474212E-2
3.410000E-8	4.482092E-2
3.415000E-8	4.472157E-2
3.420000E-8	4.444407E-2
3.425000E-8	4.401241E-2
3.430000E-8	4.341288E-2
3.435000E-8	4.264891E-2
3.440000E-8	4.173077E-2
3.445000E-8	4.066874E-2
3.450000E-8	3.945940E-2
3.455000E-8	3.813358E-2
3.460000E-8	3.674267E-2
3.465000E-8	3.529352E-2
3.470000E-8	3.379983E-2
3.475000E-8	3.229929E-2
3.480000E-8	3.084329E-2
3.485000E-8	2.942154E-2
3.490000E-8	2.806147E-2
3.495000E-8	2.681102E-2
3.500000E-8	2.568390E-2
3.505000E-8	2.468011E-2
3.510000E-8	2.379623E-2
3.515000E-8	2.303569E-2
3.520000E-8	2.243273E-2
3.525000E-8	2.200792E-2
3.530000E-8	2.173727E-2
3.535000E-8	2.162079E-2
3.540000E-8	2.166533E-2
3.545000E-8	2.186060E-2
3.550000E-8	2.222375E-2
3.555000E-8	2.275476E-2
3.560000E-8	2.340226E-2
3.565000E-8	2.418678E-2
3.570000E-8	2.510835E-2
3.575000E-8	2.611213E-2
3.580000E-8	2.721527E-2
3.585000E-8	2.843489E-2
3.590000E-8	2.970247E-2
3.595000E-8	3.098375E-2
3.600000E-8	3.230957E-2
3.605000E-8	3.365252E-2
3.610000E-8	3.497834E-2
3.615000E-8	3.629388E-2
3.620000E-8	3.758544E-2
3.625000E-8	3.880163E-2
3.630000E-8	3.992532E-2
3.635000E-8	4.092226E-2
3.640000E-8	4.175475E-2
3.645000E-8	4.243993E-2
3.650000E-8	4.294696E-2
3.655000E-8	4.322103E-2
3.660000E-8	4.329640E-2
3.665000E-8	4.321760E-2
3.670000E-8	4.291613E-2
3.675000E-8	4.241937E-2
3.680000E-8	4.178901E-2
3.685000E-8	4.101818E-2
3.690000E-8	4.008291E-2
3.695000E-8	3.903459E-2
3.700000E-8	3.790062E-2
3.705000E-8	3.669813E-2
3.710000E-8	3.544768E-2
3.715000E-8	3.418353E-2
3.720000E-8	3.286114E-2
3.725000E-8	3.150106E-2
3.730000E-8	3.016154E-2
3.735000E-8	2.885285E-2
3.740000E-8	2.757156E-2
3.745000E-8	2.633139E-2
3.750000E-8	2.517001E-2
3.755000E-8	2.409771E-2
3.760000E-8	2.313846E-2
3.765000E-8	2.230940E-2
3.770000E-8	2.162079E-2
3.775000E-8	2.107265E-2
3.780000E-8	2.067867E-2
3.785000E-8	2.046627E-2
3.790000E-8	2.042858E-2
3.795000E-8	2.055191E-2
3.800000E-8	2.085682E-2
3.805000E-8	2.135015E-2
3.810000E-8	2.197366E-2
3.815000E-8	2.271365E-2
3.820000E-8	2.359068E-2
3.825000E-8	2.457048E-2
3.830000E-8	2.562566E-2
3.835000E-8	2.673222E-2
3.840000E-8	2.787989E-2
3.845000E-8	2.904812E-2
3.850000E-8	3.021635E-2
3.855000E-8	3.142226E-2
3.860000E-8	3.264873E-2
3.865000E-8	3.381696E-2
3.870000E-8	3.491667E-2
3.875000E-8	3.599240E-2
3.880000E-8	3.699619E-2
3.885000E-8	3.787322E-2
3.890000E-8	3.863719E-2
3.895000E-8	3.929839E-2
3.900000E-8	3.980542E-2
3.905000E-8	4.014458E-2
3.910000E-8	4.032958E-2
3.915000E-8	4.034328E-2
3.920000E-8	4.017541E-2
3.925000E-8	3.986366E-2
3.930000E-8	3.940116E-2
3.935000E-8	3.877080E-2
3.940000E-8	3.801368E-2
3.945000E-8	3.714350E-2
3.950000E-8	3.615342E-2
3.955000E-8	3.507769E-2
3.960000E-8	3.395057E-2
3.965000E-8	3.274466E-2
3.970000E-8	3.149421E-2
3.975000E-8	3.026431E-2
3.980000E-8	2.904127E-2
3.985000E-8	2.781823E-2
3.990000E-8	2.664657E-2
3.995000E-8	2.554344E-2
4.000000E-8	2.449511E-2
4.005000E-8	2.353929E-2
4.010000E-8	2.271023E-2
4.015000E-8	2.197708E-2
4.020000E-8	2.132959E-2
4.025000E-8	2.078830E-2
4.030000E-8	2.038405E-2
4.035000E-8	2.010312E-2
4.040000E-8	1.996266E-2
4.045000E-8	1.998664E-2
4.050000E-8	2.017164E-2
4.055000E-8	2.050738E-2
4.060000E-8	2.101441E-2
4.065000E-8	2.170301E-2
4.070000E-8	2.251495E-2
4.075000E-8	2.342966E-2
4.080000E-8	2.445743E-2
4.085000E-8	2.557770E-2
4.090000E-8	2.671509E-2
4.095000E-8	2.786276E-2
4.100000E-8	2.904127E-2
4.105000E-8	3.019580E-2
4.110000E-8	3.130578E-2
4.115000E-8	3.237466E-2
4.120000E-8	3.337502E-2
4.125000E-8	3.430344E-2
4.130000E-8	3.517361E-2
4.135000E-8	3.596842E-2
4.140000E-8	3.666045E-2
4.145000E-8	3.727711E-2
4.150000E-8	3.781497E-2
4.155000E-8	3.822608E-2
4.160000E-8	3.850015E-2
4.165000E-8	3.867487E-2
4.170000E-8	3.868858E-2
4.175000E-8	3.851728E-2
4.180000E-8	3.819867E-2
4.185000E-8	3.772248E-2
4.190000E-8	3.707841E-2
4.195000E-8	3.630416E-2
4.200000E-8	3.541343E-2
4.205000E-8	3.439251E-2
4.210000E-8	3.328252E-2
4.215000E-8	3.212115E-2
4.220000E-8	3.089810E-2
4.225000E-8	2.964765E-2
4.230000E-8	2.841433E-2
4.235000E-8	2.718786E-2
4.240000E-8	2.598195E-2
4.245000E-8	2.485826E-2
4.250000E-8	2.382364E-2
4.255000E-8	2.284726E-2
4.260000E-8	2.195310E-2
4.265000E-8	2.117200E-2
4.270000E-8	2.049710E-2
4.275000E-8	1.992840E-2
4.280000E-8	1.950702E-2
4.285000E-8	1.923980E-2
4.290000E-8	1.911304E-2
4.295000E-8	1.914730E-2
4.300000E-8	1.932887E-2
4.305000E-8	1.965433E-2
4.310000E-8	2.012025E-2
4.315000E-8	2.071293E-2
4.320000E-8	2.141524E-2
4.325000E-8	2.225458E-2
4.330000E-8	2.320355E-2
4.335000E-8	2.418678E-2
4.340000E-8	2.522140E-2
4.345000E-8	2.633139E-2
4.350000E-8	2.746194E-2
4.355000E-8	2.856165E-2
4.360000E-8	2.966478E-2
4.365000E-8	3.075422E-2
4.370000E-8	3.176828E-2
4.375000E-8	3.271725E-2
4.380000E-8	3.361141E-2
4.385000E-8	3.441307E-2
4.390000E-8	3.508797E-2
4.395000E-8	3.563611E-2
4.400000E-8	3.606092E-2
4.405000E-8	3.635897E-2
4.410000E-8	3.651999E-2
4.415000E-8	3.651999E-2
4.420000E-8	3.636240E-2
4.425000E-8	3.609175E-2
4.430000E-8	3.570463E-2
4.435000E-8	3.521130E-2
4.440000E-8	3.461519E-2
4.445000E-8	3.392659E-2
4.450000E-8	3.312836E-2
4.455000E-8	3.225818E-2
4.460000E-8	3.134004E-2
4.465000E-8	3.035339E-2
4.470000E-8	2.931877E-2
4.475000E-8	2.826702E-2
4.480000E-8	2.716731E-2
4.485000E-8	2.605732E-2
4.490000E-8	2.498502E-2
4.495000E-8	2.393669E-2
4.500000E-8	2.290893E-2
4.505000E-8	2.195310E-2
4.510000E-8	2.109663E-2
4.515000E-8	2.034294E-2
4.520000E-8	1.971942E-2
4.525000E-8	1.924665E-2
4.530000E-8	1.890064E-2
4.535000E-8	1.867110E-2
4.540000E-8	1.857518E-2
4.545000E-8	1.860258E-2
4.550000E-8	1.876017E-2
4.555000E-8	1.905137E-2
4.560000E-8	1.943165E-2
4.565000E-8	1.989072E-2
4.570000E-8	2.043543E-2
4.575000E-8	2.106580E-2
4.580000E-8	2.179209E-2
4.585000E-8	2.260402E-2
4.590000E-8	2.348448E-2
4.595000E-8	2.443002E-2
4.600000E-8	2.545094E-2
4.605000E-8	2.651982E-2
4.610000E-8	2.759554E-2
4.615000E-8	2.866785E-2
4.620000E-8	2.973330E-2
4.625000E-8	3.076449E-2
4.630000E-8	3.172374E-2
4.635000E-8	3.260420E-2
4.640000E-8	3.338187E-2
4.645000E-8	3.403964E-2
4.650000E-8	3.455695E-2
4.655000E-8	3.493723E-2
4.660000E-8	3.518047E-2
4.665000E-8	3.529352E-2
4.670000E-8	3.528324E-2
4.675000E-8	3.514621E-2
4.680000E-8	3.489269E-2
4.685000E-8	3.452612E-2
4.690000E-8	3.404992E-2
4.695000E-8	3.346409E-2
4.700000E-8	3.277892E-2
4.705000E-8	3.201837E-2
4.710000E-8	3.119616E-2
4.715000E-8	3.030885E-2
4.720000E-8	2.935645E-2
4.725000E-8	2.834239E-2
4.730000E-8	2.730092E-2
4.735000E-8	2.625602E-2
4.740000E-8	2.518029E-2
4.745000E-8	2.411484E-2
4.750000E-8	2.310420E-2
4.755000E-8	2.213810E-2
4.760000E-8	2.124394E-2
4.765000E-8	2.045256E-2
4.770000E-8	1.976396E-2
4.775000E-8	1.916443E-2
4.780000E-8	1.870536E-2
4.785000E-8	1.841759E-2
4.790000E-8	1.824972E-2
4.795000E-8	1.819148E-2
4.800000E-8	1.827712E-2
4.805000E-8	1.849981E-2
4.810000E-8	1.881841E-2
4.815000E-8	1.924322E-2
4.820000E-8	1.977081E-2
4.825000E-8	2.035664E-2
4.830000E-8	2.101784E-2
4.835000E-8	2.177496E-2
4.840000E-8	2.259375E-2
4.845000E-8	2.345022E-2
4.850000E-8	2.434780E-2
4.855000E-8	2.528992E-2
4.860000E-8	2.625945E-2
4.865000E-8	2.724953E-2
4.870000E-8	2.819165E-2
4.875000E-8	2.908238E-2
4.880000E-8	2.995256E-2
4.885000E-8	3.076449E-2
4.890000E-8	3.145310E-2
4.895000E-8	3.203550E-2
4.900000E-8	3.251512E-2
4.905000E-8	3.285771E-2
4.910000E-8	3.309410E-2
4.915000E-8	3.321058E-2
4.920000E-8	3.316604E-2
4.925000E-8	3.301188E-2
4.930000E-8	3.278577E-2
4.935000E-8	3.243975E-2
4.940000E-8	3.197383E-2
4.945000E-8	3.143939E-2
4.950000E-8	3.083986E-2
4.955000E-8	3.014098E-2
4.960000E-8	2.936673E-2
4.965000E-8	2.855479E-2
4.970000E-8	2.771203E-2
4.975000E-8	2.685555E-2
4.980000E-8	2.598880E-2
4.985000E-8	2.511177E-2
4.990000E-8	2.423132E-2
4.995000E-8	2.338170E-2
5.000000E-8	2.256634E-2
5.005000E-8	2.178181E-2
5.010000E-8	2.104524E-2
5.015000E-8	2.038747E-2
5.020000E-8	1.979822E-2
5.025000E-8	1.925008E-2
5.030000E-8	1.877730E-2
5.035000E-8	1.843814E-2
5.040000E-8	1.822574E-2
5.045000E-8	1.811611E-2
5.050000E-8	1.811268E-2
5.055000E-8	1.824972E-2
5.060000E-8	1.853064E-2
5.065000E-8	1.893832E-2
5.070000E-8	1.942822E-2
5.075000E-8	1.997294E-2
5.080000E-8	2.059988E-2
5.085000E-8	2.130561E-2
5.090000E-8	2.204560E-2
5.095000E-8	2.279930E-2
5.100000E-8	2.358040E-2
5.105000E-8	2.436150E-2
5.110000E-8	2.510835E-2
5.115000E-8	2.585862E-2
5.120000E-8	2.662602E-2
5.125000E-8	2.738999E-2
5.130000E-8	2.811628E-2
5.135000E-8	2.881174E-2
5.140000E-8	2.949006E-2
5.145000E-8	3.013413E-2
5.150000E-8	3.068912E-2
5.155000E-8	3.112421E-2
5.160000E-8	3.147023E-2
5.165000E-8	3.172717E-2
5.170000E-8	3.186078E-2
5.175000E-8	3.186420E-2
5.180000E-8	3.175458E-2
5.185000E-8	3.152504E-2
5.190000E-8	3.118245E-2
5.195000E-8	3.074051E-2
5.200000E-8	3.018894E-2
5.205000E-8	2.953460E-2
5.210000E-8	2.881516E-2
5.215000E-8	2.803748E-2
5.220000E-8	2.721870E-2
5.225000E-8	2.635195E-2
5.230000E-8	2.543038E-2
5.235000E-8	2.452595E-2
5.240000E-8	2.367290E-2
5.245000E-8	2.283356E-2
5.250000E-8	2.201134E-2
5.255000E-8	2.127478E-2
5.260000E-8	2.060673E-2
5.265000E-8	1.999007E-2
5.270000E-8	1.948646E-2
5.275000E-8	1.908906E-2
5.280000E-8	1.873962E-2
5.285000E-8	1.845870E-2
5.290000E-8	1.827027E-2
5.295000E-8	1.814694E-2
5.300000E-8	1.808185E-2
5.305000E-8	1.807842E-2
5.310000E-8	1.814694E-2
5.315000E-8	1.827712E-2
5.320000E-8	1.850323E-2
5.325000E-8	1.883212E-2
5.330000E-8	1.925693E-2
5.335000E-8	1.978109E-2
5.340000E-8	2.040460E-2
5.345000E-8	2.111033E-2
5.350000E-8	2.186060E-2
5.355000E-8	2.265884E-2
5.360000E-8	2.349133E-2
5.365000E-8	2.433752E-2
5.370000E-8	2.515631E-2
5.375000E-8	2.592714E-2
5.380000E-8	2.667398E-2
5.385000E-8	2.738314E-2
5.390000E-8	2.801350E-2
5.395000E-8	2.854452E-2
5.400000E-8	2.899673E-2
5.405000E-8	2.938043E-2
5.410000E-8	2.967849E-2
5.415000E-8	2.987719E-2
5.420000E-8	2.999367E-2
5.425000E-8	3.002793E-2
5.430000E-8	2.996283E-2
5.435000E-8	2.981210E-2
5.440000E-8	2.958599E-2
5.445000E-8	2.926395E-2
5.450000E-8	2.885970E-2
5.455000E-8	2.838693E-2
5.460000E-8	2.781823E-2
5.465000E-8	2.717416E-2
5.470000E-8	2.650611E-2
5.475000E-8	2.581066E-2
5.480000E-8	2.505011E-2
5.485000E-8	2.427586E-2
5.490000E-8	2.351874E-2
5.495000E-8	2.276161E-2
5.500000E-8	2.199421E-2
5.505000E-8	2.125765E-2
5.510000E-8	2.055191E-2
5.515000E-8	1.989757E-2
5.520000E-8	1.933572E-2
5.525000E-8	1.880814E-2
5.530000E-8	1.833879E-2
5.535000E-8	1.799277E-2
5.540000E-8	1.774268E-2
5.545000E-8	1.756454E-2
5.550000E-8	1.748917E-2
5.555000E-8	1.756454E-2
5.560000E-8	1.774268E-2
5.565000E-8	1.799277E-2
5.570000E-8	1.833194E-2
5.575000E-8	1.879101E-2
5.580000E-8	1.932887E-2
5.585000E-8	1.991127E-2
5.590000E-8	2.052451E-2
5.595000E-8	2.116172E-2
5.600000E-8	2.182635E-2
5.605000E-8	2.252865E-2
5.610000E-8	2.324124E-2
5.615000E-8	2.394012E-2
5.620000E-8	2.463215E-2
5.625000E-8	2.533446E-2
5.630000E-8	2.601964E-2
5.635000E-8	2.666028E-2
5.640000E-8	2.728036E-2
5.645000E-8	2.784563E-2
5.650000E-8	2.833211E-2
5.655000E-8	2.875350E-2
5.660000E-8	2.910294E-2
5.665000E-8	2.935645E-2
5.670000E-8	2.951747E-2
5.675000E-8	2.956201E-2
5.680000E-8	2.945580E-2
5.685000E-8	2.923997E-2
5.690000E-8	2.893849E-2
5.695000E-8	2.853766E-2
5.700000E-8	2.805804E-2
5.705000E-8	2.751332E-2
5.710000E-8	2.688296E-2
5.715000E-8	2.619436E-2
5.720000E-8	2.549890E-2
5.725000E-8	2.475891E-2
5.730000E-8	2.397438E-2
5.735000E-8	2.320355E-2
5.740000E-8	2.243273E-2
5.745000E-8	2.164477E-2
5.750000E-8	2.090136E-2
5.755000E-8	2.019562E-2
5.760000E-8	1.948646E-2
5.765000E-8	1.881841E-2
5.770000E-8	1.824972E-2
5.775000E-8	1.774268E-2
5.780000E-8	1.728362E-2
5.785000E-8	1.694445E-2
5.790000E-8	1.673547E-2
5.795000E-8	1.661214E-2
5.800000E-8	1.657103E-2
5.805000E-8	1.661557E-2
5.810000E-8	1.676973E-2
5.815000E-8	1.703010E-2
5.820000E-8	1.734871E-2
5.825000E-8	1.773926E-2
5.830000E-8	1.820518E-2
5.835000E-8	1.871221E-2
5.840000E-8	1.924322E-2
5.845000E-8	1.980850E-2
5.850000E-8	2.038062E-2
5.855000E-8	2.095274E-2
5.860000E-8	2.155227E-2
5.865000E-8	2.216551E-2
5.870000E-8	2.274791E-2
5.875000E-8	2.333031E-2
5.880000E-8	2.393327E-2
5.885000E-8	2.452595E-2
5.890000E-8	2.508094E-2
5.895000E-8	2.560510E-2
5.900000E-8	2.608815E-2
5.905000E-8	2.651982E-2
5.910000E-8	2.687953E-2
5.915000E-8	2.715018E-2
5.920000E-8	2.732833E-2
5.925000E-8	2.742768E-2
5.930000E-8	2.744481E-2
5.935000E-8	2.735231E-2
5.940000E-8	2.719814E-2
5.945000E-8	2.697203E-2
5.950000E-8	2.664315E-2
5.955000E-8	2.623547E-2
5.960000E-8	2.580038E-2
5.965000E-8	2.533788E-2
5.970000E-8	2.483085E-2
5.975000E-8	2.429984E-2
5.980000E-8	2.373799E-2
5.985000E-8	2.315559E-2
5.990000E-8	2.257319E-2
5.995000E-8	2.198051E-2
6.000000E-8	2.138441E-2
6.005000E-8	2.080886E-2
6.010000E-8	2.024358E-2
6.015000E-8	1.967146E-2
6.020000E-8	1.912332E-2
6.025000E-8	1.861971E-2
6.030000E-8	1.817435E-2
6.035000E-8	1.777009E-2
6.040000E-8	1.741380E-2
6.045000E-8	1.711917E-2
6.050000E-8	1.688964E-2
6.055000E-8	1.676288E-2
6.060000E-8	1.673890E-2
6.065000E-8	1.678686E-2
6.070000E-8	1.693075E-2
6.075000E-8	1.717399E-2
6.080000E-8	1.748574E-2
6.085000E-8	1.785917E-2
6.090000E-8	1.831823E-2
6.095000E-8	1.882869E-2
6.100000E-8	1.936313E-2
6.105000E-8	1.995581E-2
6.110000E-8	2.057247E-2
6.115000E-8	2.114117E-2
6.120000E-8	2.168588E-2
6.125000E-8	2.223745E-2
6.130000E-8	2.275134E-2
6.135000E-8	2.321726E-2
6.140000E-8	2.362836E-2
6.145000E-8	2.398123E-2
6.150000E-8	2.428956E-2
6.155000E-8	2.456706E-2
6.160000E-8	2.479317E-2
6.165000E-8	2.498159E-2
6.170000E-8	2.513576E-2
6.175000E-8	2.526594E-2
6.180000E-8	2.536872E-2
6.185000E-8	2.542353E-2
6.190000E-8	2.540983E-2
6.195000E-8	2.534816E-2
6.200000E-8	2.526251E-2
6.205000E-8	2.510492E-2
6.210000E-8	2.483428E-2
6.215000E-8	2.450539E-2
6.220000E-8	2.411141E-2
6.225000E-8	2.361809E-2
6.230000E-8	2.306994E-2
6.235000E-8	2.248412E-2
6.240000E-8	2.183662E-2
6.245000E-8	2.116172E-2
6.250000E-8	2.050738E-2
6.255000E-8	1.985646E-2
6.260000E-8	1.923637E-2
6.265000E-8	1.868138E-2
6.270000E-8	1.817435E-2
6.275000E-8	1.772556E-2
6.280000E-8	1.735556E-2
6.285000E-8	1.704380E-2
6.290000E-8	1.680057E-2
6.295000E-8	1.664297E-2
6.300000E-8	1.654020E-2
6.305000E-8	1.647853E-2
6.310000E-8	1.650251E-2
6.315000E-8	1.658131E-2
6.320000E-8	1.670121E-2
6.325000E-8	1.689992E-2
6.330000E-8	1.715686E-2
6.335000E-8	1.742408E-2
6.340000E-8	1.776324E-2
6.345000E-8	1.817435E-2
6.350000E-8	1.860601E-2
6.355000E-8	1.905480E-2
6.360000E-8	1.956868E-2
6.365000E-8	2.009970E-2
6.370000E-8	2.059988E-2
6.375000E-8	2.111719E-2
6.380000E-8	2.166190E-2
6.385000E-8	2.217921E-2
6.390000E-8	2.267254E-2
6.395000E-8	2.314531E-2
6.400000E-8	2.357355E-2
6.405000E-8	2.394697E-2
6.410000E-8	2.429641E-2
6.415000E-8	2.458761E-2
6.420000E-8	2.480344E-2
6.425000E-8	2.496104E-2
6.430000E-8	2.505353E-2
6.435000E-8	2.505011E-2
6.440000E-8	2.498159E-2
6.445000E-8	2.488224E-2
6.450000E-8	2.471780E-2
6.455000E-8	2.443345E-2
6.460000E-8	2.405660E-2
6.465000E-8	2.363179E-2
6.470000E-8	2.317615E-2
6.475000E-8	2.268624E-2
6.480000E-8	2.214838E-2
6.485000E-8	2.156940E-2
6.490000E-8	2.098700E-2
6.495000E-8	2.041488E-2
6.500000E-8	1.983933E-2
6.505000E-8	1.927063E-2
6.510000E-8	1.875675E-2
6.515000E-8	1.830796E-2
6.520000E-8	1.791398E-2
6.525000E-8	1.756111E-2
6.530000E-8	1.723908E-2
6.535000E-8	1.696158E-2
6.540000E-8	1.673890E-2
6.545000E-8	1.654705E-2
6.550000E-8	1.637575E-2
6.555000E-8	1.625585E-2
6.560000E-8	1.620446E-2
6.565000E-8	1.619076E-2
6.570000E-8	1.621131E-2
6.575000E-8	1.629011E-2
6.580000E-8	1.643057E-2
6.585000E-8	1.667038E-2
6.590000E-8	1.696843E-2
6.595000E-8	1.729732E-2
6.600000E-8	1.767759E-2
6.605000E-8	1.812981E-2
6.610000E-8	1.858888E-2
6.615000E-8	1.904110E-2
6.620000E-8	1.951387E-2
6.625000E-8	2.000720E-2
6.630000E-8	2.045942E-2
6.635000E-8	2.088080E-2
6.640000E-8	2.128848E-2
6.645000E-8	2.165848E-2
6.650000E-8	2.198736E-2
6.655000E-8	2.229569E-2
6.660000E-8	2.255263E-2
6.665000E-8	2.275134E-2
6.670000E-8	2.291578E-2
6.675000E-8	2.304254E-2
6.680000E-8	2.312818E-2
6.685000E-8	2.319670E-2
6.690000E-8	2.322411E-2
6.695000E-8	2.318642E-2
6.700000E-8	2.308022E-2
6.705000E-8	2.297059E-2
6.710000E-8	2.282328E-2
6.715000E-8	2.257319E-2
6.720000E-8	2.224430E-2
6.725000E-8	2.187088E-2
6.730000E-8	2.144607E-2
6.735000E-8	2.097673E-2
6.740000E-8	2.048340E-2
6.745000E-8	1.996266E-2
6.750000E-8	1.942137E-2
6.755000E-8	1.889378E-2
6.760000E-8	1.838675E-2
6.765000E-8	1.791055E-2
6.770000E-8	1.748917E-2
6.775000E-8	1.712945E-2
6.780000E-8	1.681084E-2
6.785000E-8	1.652649E-2
6.790000E-8	1.627640E-2
6.795000E-8	1.606400E-2
6.800000E-8	1.591326E-2
6.805000E-8	1.583104E-2
6.810000E-8	1.578650E-2
6.815000E-8	1.577622E-2
6.820000E-8	1.583104E-2
6.825000E-8	1.597493E-2
6.830000E-8	1.619076E-2
6.835000E-8	1.644427E-2
6.840000E-8	1.675260E-2
6.845000E-8	1.712260E-2
6.850000E-8	1.753028E-2
6.855000E-8	1.795166E-2
6.860000E-8	1.836277E-2
6.865000E-8	1.876703E-2
6.870000E-8	1.915073E-2
6.875000E-8	1.951730E-2
6.880000E-8	1.985988E-2
6.885000E-8	2.015794E-2
6.890000E-8	2.040460E-2
6.895000E-8	2.065127E-2
6.900000E-8	2.088765E-2
6.905000E-8	2.109663E-2
6.910000E-8	2.129533E-2
6.915000E-8	2.147691E-2
6.920000E-8	2.162422E-2
6.925000E-8	2.174755E-2
6.930000E-8	2.187088E-2
6.935000E-8	2.194625E-2
6.940000E-8	2.197023E-2
6.945000E-8	2.197023E-2
6.950000E-8	2.194283E-2
6.955000E-8	2.184690E-2
6.960000E-8	2.171672E-2
6.965000E-8	2.156598E-2
6.970000E-8	2.135357E-2
6.975000E-8	2.107950E-2
6.980000E-8	2.078830E-2
6.985000E-8	2.046627E-2
6.990000E-8	2.010997E-2
6.995000E-8	1.971942E-2
7.000000E-8	1.928434E-2
7.005000E-8	1.886295E-2
7.010000E-8	1.846555E-2
7.015000E-8	1.805101E-2
7.020000E-8	1.762963E-2
7.025000E-8	1.723565E-2
7.030000E-8	1.684510E-2
7.035000E-8	1.647511E-2
7.040000E-8	1.617020E-2
7.045000E-8	1.589613E-2
7.050000E-8	1.564604E-2
7.055000E-8	1.547132E-2
7.060000E-8	1.536169E-2
7.065000E-8	1.529317E-2
7.070000E-8	1.530345E-2
7.075000E-8	1.539595E-2
7.080000E-8	1.553299E-2
7.085000E-8	1.573854E-2
7.090000E-8	1.604002E-2
7.095000E-8	1.638603E-2
7.100000E-8	1.673547E-2
7.105000E-8	1.708149E-2
7.110000E-8	1.744463E-2
7.115000E-8	1.780778E-2
7.120000E-8	1.815037E-2
7.125000E-8	1.847240E-2
7.130000E-8	1.875332E-2
7.135000E-8	1.902054E-2
7.140000E-8	1.929804E-2
7.145000E-8	1.956183E-2
7.150000E-8	1.981535E-2
7.155000E-8	2.009285E-2
7.160000E-8	2.036692E-2
7.165000E-8	2.062386E-2
7.170000E-8	2.088765E-2
7.175000E-8	2.112746E-2
7.180000E-8	2.127478E-2
7.185000E-8	2.136042E-2
7.190000E-8	2.141181E-2
7.195000E-8	2.138783E-2
7.200000E-8	2.126450E-2
7.205000E-8	2.107950E-2
7.210000E-8	2.085682E-2
7.215000E-8	2.058960E-2
7.220000E-8	2.028470E-2
7.225000E-8	1.995581E-2
7.230000E-8	1.963378E-2
7.235000E-8	1.932202E-2
7.240000E-8	1.901369E-2
7.245000E-8	1.872934E-2
7.250000E-8	1.844157E-2
7.255000E-8	1.815722E-2
7.260000E-8	1.787287E-2
7.265000E-8	1.760222E-2
7.270000E-8	1.734871E-2
7.275000E-8	1.710204E-2
7.280000E-8	1.685538E-2
7.285000E-8	1.661899E-2
7.290000E-8	1.639974E-2
7.295000E-8	1.619418E-2
7.300000E-8	1.602289E-2
7.305000E-8	1.591326E-2
7.310000E-8	1.583446E-2
7.315000E-8	1.577280E-2
7.320000E-8	1.575909E-2
7.325000E-8	1.580021E-2
7.330000E-8	1.586187E-2
7.335000E-8	1.595094E-2
7.340000E-8	1.607085E-2
7.345000E-8	1.625927E-2
7.350000E-8	1.648538E-2
7.355000E-8	1.667723E-2
7.360000E-8	1.687251E-2
7.365000E-8	1.712945E-2
7.370000E-8	1.739324E-2
7.375000E-8	1.761935E-2
7.380000E-8	1.785574E-2
7.385000E-8	1.814694E-2
7.390000E-8	1.842101E-2
7.395000E-8	1.864712E-2
7.400000E-8	1.888351E-2
7.405000E-8	1.914045E-2
7.410000E-8	1.936313E-2
7.415000E-8	1.957896E-2
7.420000E-8	1.981192E-2
7.425000E-8	1.998664E-2
7.430000E-8	2.009627E-2
7.435000E-8	2.019562E-2
7.440000E-8	2.026757E-2
7.445000E-8	2.026757E-2
7.450000E-8	2.021618E-2
7.455000E-8	2.012368E-2
7.460000E-8	1.995581E-2
7.465000E-8	1.973655E-2
7.470000E-8	1.951387E-2
7.475000E-8	1.927406E-2
7.480000E-8	1.902054E-2
7.485000E-8	1.874304E-2
7.490000E-8	1.844842E-2
7.495000E-8	1.815037E-2
7.500000E-8	1.786944E-2
7.505000E-8	1.757824E-2
7.510000E-8	1.728362E-2
7.515000E-8	1.697529E-2
7.520000E-8	1.668408E-2
7.525000E-8	1.640659E-2
7.530000E-8	1.613252E-2
7.535000E-8	1.585159E-2
7.540000E-8	1.559808E-2
7.545000E-8	1.538567E-2
7.550000E-8	1.520753E-2
7.555000E-8	1.507734E-2
7.560000E-8	1.499170E-2
7.565000E-8	1.493003E-2
7.570000E-8	1.489577E-2
7.575000E-8	1.489920E-2
7.580000E-8	1.495058E-2
7.585000E-8	1.504994E-2
7.590000E-8	1.516984E-2
7.595000E-8	1.530345E-2
7.600000E-8	1.547475E-2
7.605000E-8	1.567345E-2
7.610000E-8	1.589270E-2
7.615000E-8	1.614279E-2
7.620000E-8	1.641001E-2
7.625000E-8	1.666010E-2
7.630000E-8	1.693075E-2
7.635000E-8	1.723908E-2
7.640000E-8	1.752343E-2
7.645000E-8	1.777009E-2
7.650000E-8	1.802361E-2
7.655000E-8	1.827370E-2
7.660000E-8	1.847240E-2
7.665000E-8	1.864369E-2
7.670000E-8	1.878758E-2
7.675000E-8	1.889036E-2
7.680000E-8	1.896915E-2
7.685000E-8	1.903082E-2
7.690000E-8	1.903425E-2
7.695000E-8	1.901369E-2
7.700000E-8	1.899999E-2
7.705000E-8	1.896573E-2
7.710000E-8	1.888008E-2
7.715000E-8	1.877730E-2
7.720000E-8	1.867453E-2
7.725000E-8	1.855119E-2
7.730000E-8	1.841759E-2
7.735000E-8	1.825657E-2
7.740000E-8	1.805787E-2
7.745000E-8	1.782491E-2
7.750000E-8	1.758167E-2
7.755000E-8	1.732130E-2
7.760000E-8	1.701982E-2
7.765000E-8	1.668408E-2
7.770000E-8	1.635520E-2
7.775000E-8	1.603659E-2
7.780000E-8	1.572141E-2
7.785000E-8	1.542336E-2
7.790000E-8	1.516299E-2
7.795000E-8	1.494373E-2
7.800000E-8	1.474503E-2
7.805000E-8	1.459772E-2
7.810000E-8	1.450522E-2
7.815000E-8	1.442985E-2
7.820000E-8	1.438874E-2
7.825000E-8	1.440929E-2
7.830000E-8	1.445383E-2
7.835000E-8	1.450522E-2
7.840000E-8	1.458744E-2
7.845000E-8	1.470392E-2
7.850000E-8	1.484781E-2
7.855000E-8	1.502938E-2
7.860000E-8	1.522123E-2
7.865000E-8	1.541651E-2
7.870000E-8	1.561521E-2
7.875000E-8	1.583789E-2
7.880000E-8	1.606742E-2
7.885000E-8	1.628668E-2
7.890000E-8	1.650594E-2
7.895000E-8	1.671492E-2
7.900000E-8	1.691019E-2
7.905000E-8	1.709519E-2
7.910000E-8	1.729389E-2
7.915000E-8	1.747547E-2
7.920000E-8	1.763648E-2
7.925000E-8	1.779407E-2
7.930000E-8	1.794481E-2
7.935000E-8	1.807500E-2
7.940000E-8	1.818805E-2
7.945000E-8	1.828398E-2
7.950000E-8	1.835592E-2
7.955000E-8	1.841073E-2
7.960000E-8	1.842444E-2
7.965000E-8	1.840388E-2
7.970000E-8	1.834222E-2
7.975000E-8	1.823944E-2
7.980000E-8	1.808870E-2
7.985000E-8	1.791055E-2
7.990000E-8	1.768444E-2
7.995000E-8	1.740352E-2
8.000000E-8	1.709862E-2
8.005000E-8	1.679371E-2
8.010000E-8	1.647168E-2
8.015000E-8	1.616335E-2
8.020000E-8	1.589270E-2
8.025000E-8	1.562891E-2
8.030000E-8	1.537197E-2
8.035000E-8	1.516984E-2
8.040000E-8	1.502938E-2
8.045000E-8	1.490262E-2
8.050000E-8	1.480670E-2
8.055000E-8	1.474503E-2
8.060000E-8	1.468679E-2
8.065000E-8	1.464911E-2
8.070000E-8	1.464568E-2
8.075000E-8	1.466281E-2
8.080000E-8	1.466281E-2
8.085000E-8	1.468679E-2
8.090000E-8	1.473818E-2
8.095000E-8	1.476901E-2
8.100000E-8	1.478957E-2
8.105000E-8	1.484781E-2
8.110000E-8	1.491633E-2
8.115000E-8	1.497457E-2
8.120000E-8	1.507049E-2
8.125000E-8	1.520067E-2
8.130000E-8	1.533428E-2
8.135000E-8	1.548160E-2
8.140000E-8	1.566660E-2
8.145000E-8	1.588585E-2
8.150000E-8	1.613594E-2
8.155000E-8	1.638946E-2
8.160000E-8	1.662584E-2
8.165000E-8	1.686566E-2
8.170000E-8	1.709862E-2
8.175000E-8	1.729047E-2
8.180000E-8	1.743778E-2
8.185000E-8	1.755769E-2
8.190000E-8	1.763648E-2
8.195000E-8	1.765019E-2
8.200000E-8	1.759880E-2
8.205000E-8	1.751315E-2
8.210000E-8	1.741037E-2
8.215000E-8	1.729732E-2
8.220000E-8	1.713973E-2
8.225000E-8	1.695130E-2
8.230000E-8	1.674575E-2
8.235000E-8	1.654020E-2
8.240000E-8	1.632779E-2
8.245000E-8	1.610854E-2
8.250000E-8	1.586187E-2
8.255000E-8	1.560493E-2
8.260000E-8	1.534799E-2
8.265000E-8	1.510475E-2
8.270000E-8	1.486151E-2
8.275000E-8	1.464225E-2
8.280000E-8	1.446411E-2
8.285000E-8	1.429624E-2
8.290000E-8	1.415920E-2
8.295000E-8	1.408041E-2
8.300000E-8	1.402902E-2
8.305000E-8	1.397421E-2
8.310000E-8	1.394680E-2
8.315000E-8	1.395365E-2
8.320000E-8	1.396050E-2
8.325000E-8	1.397421E-2
8.330000E-8	1.400846E-2
8.335000E-8	1.404958E-2
8.340000E-8	1.408041E-2
8.345000E-8	1.412837E-2
8.350000E-8	1.420374E-2
8.355000E-8	1.427911E-2
8.360000E-8	1.437503E-2
8.365000E-8	1.451207E-2
8.370000E-8	1.467309E-2
8.375000E-8	1.482725E-2
8.380000E-8	1.499855E-2
8.385000E-8	1.520067E-2
8.390000E-8	1.540280E-2
8.395000E-8	1.559465E-2
8.400000E-8	1.577280E-2
8.405000E-8	1.595780E-2
8.410000E-8	1.613937E-2
8.415000E-8	1.632437E-2
8.420000E-8	1.649566E-2
8.425000E-8	1.662584E-2
8.430000E-8	1.673205E-2
8.435000E-8	1.682455E-2
8.440000E-8	1.688279E-2
8.445000E-8	1.691019E-2
8.450000E-8	1.693075E-2
8.455000E-8	1.689306E-2
8.460000E-8	1.680057E-2
8.465000E-8	1.672177E-2
8.470000E-8	1.665325E-2
8.475000E-8	1.654020E-2
8.480000E-8	1.641344E-2
8.485000E-8	1.631066E-2
8.490000E-8	1.621816E-2
8.495000E-8	1.611881E-2
8.500000E-8	1.604344E-2
8.505000E-8	1.597835E-2
8.510000E-8	1.586187E-2
8.515000E-8	1.571798E-2
8.520000E-8	1.555697E-2
8.525000E-8	1.535141E-2
8.530000E-8	1.510132E-2
8.535000E-8	1.483410E-2
8.540000E-8	1.455661E-2
8.545000E-8	1.428254E-2
8.550000E-8	1.401189E-2
8.555000E-8	1.375495E-2
8.560000E-8	1.352884E-2
8.565000E-8	1.336097E-2
8.570000E-8	1.325819E-2
8.575000E-8	1.320681E-2
8.580000E-8	1.321708E-2
8.585000E-8	1.326505E-2
8.590000E-8	1.335412E-2
8.595000E-8	1.349116E-2
8.600000E-8	1.365560E-2
8.605000E-8	1.380634E-2
8.610000E-8	1.397421E-2
8.615000E-8	1.417291E-2
8.620000E-8	1.435105E-2
8.625000E-8	1.448809E-2
8.630000E-8	1.462512E-2
8.635000E-8	1.475531E-2
8.640000E-8	1.486494E-2
8.645000E-8	1.498142E-2
8.650000E-8	1.510818E-2
8.655000E-8	1.522466E-2
8.660000E-8	1.532401E-2
8.665000E-8	1.543706E-2
8.670000E-8	1.556724E-2
8.675000E-8	1.567687E-2
8.680000E-8	1.575909E-2
8.685000E-8	1.583104E-2
8.690000E-8	1.589613E-2
8.695000E-8	1.593039E-2
8.700000E-8	1.595780E-2
8.705000E-8	1.599548E-2
8.710000E-8	1.600576E-2
8.715000E-8	1.596465E-2
8.720000E-8	1.591669E-2
8.725000E-8	1.588585E-2
8.730000E-8	1.584817E-2
8.735000E-8	1.576937E-2
8.740000E-8	1.567002E-2
8.745000E-8	1.556724E-2
8.750000E-8	1.544049E-2
8.755000E-8	1.531373E-2
8.760000E-8	1.517327E-2
8.765000E-8	1.498827E-2
8.770000E-8	1.478272E-2
8.775000E-8	1.459429E-2
8.780000E-8	1.440587E-2
8.785000E-8	1.420031E-2
8.790000E-8	1.400846E-2
8.795000E-8	1.384060E-2
8.800000E-8	1.367958E-2
8.805000E-8	1.355282E-2
8.810000E-8	1.346717E-2
8.815000E-8	1.341236E-2
8.820000E-8	1.338495E-2
8.825000E-8	1.338495E-2
8.830000E-8	1.340551E-2
8.835000E-8	1.345004E-2
8.840000E-8	1.350486E-2
8.845000E-8	1.354597E-2
8.850000E-8	1.359736E-2
8.855000E-8	1.364532E-2
8.860000E-8	1.367615E-2
8.865000E-8	1.370699E-2
8.870000E-8	1.373097E-2
8.875000E-8	1.372754E-2
8.880000E-8	1.373782E-2
8.885000E-8	1.378921E-2
8.890000E-8	1.384402E-2
8.895000E-8	1.392282E-2
8.900000E-8	1.407356E-2
8.905000E-8	1.426541E-2
8.910000E-8	1.445383E-2
8.915000E-8	1.465938E-2
8.920000E-8	1.490605E-2
8.925000E-8	1.513216E-2
8.930000E-8	1.532401E-2
8.935000E-8	1.549188E-2
8.940000E-8	1.562891E-2
8.945000E-8	1.570428E-2
8.950000E-8	1.569743E-2
8.955000E-8	1.564604E-2
8.960000E-8	1.557752E-2
8.965000E-8	1.546104E-2
8.970000E-8	1.530688E-2
8.975000E-8	1.519725E-2
8.980000E-8	1.510475E-2
8.985000E-8	1.497457E-2
8.990000E-8	1.487179E-2
8.995000E-8	1.482725E-2
9.000000E-8	1.476901E-2
9.005000E-8	1.467994E-2
9.010000E-8	1.460800E-2
9.015000E-8	1.452577E-2
9.020000E-8	1.441615E-2
9.025000E-8	1.430309E-2
9.030000E-8	1.414207E-2
9.035000E-8	1.393652E-2
9.040000E-8	1.375152E-2
9.045000E-8	1.360078E-2
9.050000E-8	1.342949E-2
9.055000E-8	1.326162E-2
9.060000E-8	1.315884E-2
9.065000E-8	1.308690E-2
9.070000E-8	1.302523E-2
9.075000E-8	1.299098E-2
9.080000E-8	1.299783E-2
9.085000E-8	1.303209E-2
9.090000E-8	1.306977E-2
9.095000E-8	1.312116E-2
9.100000E-8	1.318283E-2
9.105000E-8	1.323421E-2
9.110000E-8	1.327875E-2
9.115000E-8	1.331986E-2
9.120000E-8	1.336782E-2
9.125000E-8	1.341579E-2
9.130000E-8	1.346032E-2
9.135000E-8	1.350486E-2
9.140000E-8	1.356995E-2
9.145000E-8	1.363504E-2
9.150000E-8	1.370356E-2
9.155000E-8	1.377550E-2
9.160000E-8	1.386115E-2
9.165000E-8	1.395365E-2
9.170000E-8	1.405300E-2
9.175000E-8	1.415578E-2
9.180000E-8	1.424485E-2
9.185000E-8	1.432707E-2
9.190000E-8	1.443670E-2
9.195000E-8	1.454976E-2
9.200000E-8	1.462855E-2
9.205000E-8	1.466966E-2
9.210000E-8	1.469364E-2
9.215000E-8	1.472448E-2
9.220000E-8	1.475188E-2
9.225000E-8	1.475188E-2
9.230000E-8	1.470735E-2
9.235000E-8	1.464225E-2
9.240000E-8	1.456688E-2
9.245000E-8	1.445726E-2
9.250000E-8	1.432022E-2
9.255000E-8	1.417633E-2
9.260000E-8	1.399476E-2
9.265000E-8	1.376180E-2
9.270000E-8	1.351856E-2
9.275000E-8	1.328218E-2
9.280000E-8	1.303894E-2
9.285000E-8	1.279570E-2
9.290000E-8	1.259700E-2
9.295000E-8	1.244283E-2
9.300000E-8	1.231607E-2
9.305000E-8	1.222358E-2
9.310000E-8	1.217219E-2
9.315000E-8	1.214821E-2
9.320000E-8	1.215163E-2
9.325000E-8	1.220645E-2
9.330000E-8	1.228867E-2
9.335000E-8	1.236746E-2
9.340000E-8	1.243598E-2
9.345000E-8	1.251820E-2
9.350000E-8	1.259357E-2
9.355000E-8	1.265181E-2
9.360000E-8	1.268950E-2
9.365000E-8	1.269292E-2
9.370000E-8	1.268265E-2
9.375000E-8	1.271348E-2
9.380000E-8	1.277857E-2
9.385000E-8	1.285051E-2
9.390000E-8	1.292246E-2
9.395000E-8	1.301838E-2
9.400000E-8	1.313486E-2
9.405000E-8	1.325819E-2
9.410000E-8	1.338838E-2
9.415000E-8	1.352199E-2
9.420000E-8	1.364189E-2
9.425000E-8	1.372412E-2
9.430000E-8	1.377208E-2
9.435000E-8	1.379949E-2
9.440000E-8	1.380976E-2
9.445000E-8	1.377550E-2
9.450000E-8	1.372069E-2
9.455000E-8	1.368301E-2
9.460000E-8	1.362819E-2
9.465000E-8	1.356652E-2
9.470000E-8	1.355625E-2
9.475000E-8	1.357338E-2
9.480000E-8	1.357680E-2
9.485000E-8	1.358708E-2
9.490000E-8	1.365217E-2
9.495000E-8	1.370699E-2
9.500000E-8	1.371384E-2
9.505000E-8	1.371726E-2
9.510000E-8	1.370356E-2
9.515000E-8	1.362476E-2
9.520000E-8	1.351171E-2
9.525000E-8	1.339523E-2
9.530000E-8	1.326505E-2
9.535000E-8	1.308690E-2
9.540000E-8	1.288477E-2
9.545000E-8	1.270320E-2
9.550000E-8	1.253876E-2
9.555000E-8	1.238117E-2
9.560000E-8	1.225098E-2
9.565000E-8	1.216191E-2
9.570000E-8	1.211052E-2
9.575000E-8	1.209339E-2
9.580000E-8	1.208997E-2
9.585000E-8	1.208311E-2
9.590000E-8	1.209682E-2
9.595000E-8	1.211052E-2
9.600000E-8	1.211395E-2
9.605000E-8	1.212765E-2
9.610000E-8	1.212765E-2
9.615000E-8	1.210367E-2
9.620000E-8	1.210367E-2
9.625000E-8	1.213793E-2
9.630000E-8	1.217561E-2
9.635000E-8	1.222700E-2
9.640000E-8	1.231265E-2
9.645000E-8	1.240515E-2
9.650000E-8	1.252505E-2
9.655000E-8	1.268265E-2
9.660000E-8	1.285051E-2
9.665000E-8	1.298412E-2
9.670000E-8	1.312801E-2
9.675000E-8	1.328560E-2
9.680000E-8	1.342264E-2
9.685000E-8	1.353912E-2
9.690000E-8	1.363847E-2
9.695000E-8	1.370013E-2
9.700000E-8	1.373097E-2
9.705000E-8	1.375152E-2
9.710000E-8	1.374125E-2
9.715000E-8	1.367958E-2
9.720000E-8	1.362134E-2
9.725000E-8	1.355967E-2
9.730000E-8	1.345690E-2
9.735000E-8	1.331301E-2
9.740000E-8	1.317255E-2
9.745000E-8	1.302181E-2
9.750000E-8	1.287107E-2
9.755000E-8	1.271348E-2
9.760000E-8	1.255589E-2
9.765000E-8	1.242913E-2
9.770000E-8	1.233663E-2
9.775000E-8	1.224413E-2
9.780000E-8	1.215506E-2
9.785000E-8	1.208654E-2
9.790000E-8	1.202145E-2
9.795000E-8	1.197006E-2
9.800000E-8	1.194608E-2
9.805000E-8	1.191525E-2
9.810000E-8	1.184673E-2
9.815000E-8	1.180219E-2
9.820000E-8	1.179191E-2
9.825000E-8	1.175423E-2
9.830000E-8	1.170969E-2
9.835000E-8	1.168914E-2
9.840000E-8	1.168229E-2
9.845000E-8	1.165488E-2
9.850000E-8	1.164803E-2
9.855000E-8	1.167543E-2
9.860000E-8	1.169599E-2
9.865000E-8	1.172340E-2
9.870000E-8	1.177478E-2
9.875000E-8	1.183645E-2
9.880000E-8	1.189469E-2
9.885000E-8	1.195978E-2
9.890000E-8	1.202487E-2
9.895000E-8	1.208311E-2
9.900000E-8	1.214821E-2
9.905000E-8	1.220302E-2
9.910000E-8	1.225783E-2
9.915000E-8	1.232635E-2
9.920000E-8	1.239144E-2
9.925000E-8	1.244968E-2
9.930000E-8	1.252163E-2
9.935000E-8	1.257987E-2
9.940000E-8	1.261755E-2
9.945000E-8	1.267237E-2
9.950000E-8	1.273403E-2
9.955000E-8	1.276487E-2
9.960000E-8	1.277172E-2
9.965000E-8	1.278542E-2
9.970000E-8	1.278200E-2
9.975000E-8	1.276487E-2
9.980000E-8	1.273746E-2
9.985000E-8	1.269635E-2
9.990000E-8	1.266552E-2
9.995000E-8	1.263468E-2
1.000000E-7	1.256959E-2
1.000500E-7	1.249422E-2
1.001000E-7	1.244626E-2
1.001500E-7	1.238802E-2
1.002000E-7	1.229895E-2
1.002500E-7	1.220987E-2
1.003000E-7	1.211737E-2
1.003500E-7	1.199062E-2
1.004000E-7	1.186043E-2
1.004500E-7	1.174053E-2
1.005000E-7	1.159664E-2
1.005500E-7	1.145275E-2
1.006000E-7	1.136025E-2
1.006500E-7	1.130544E-2
1.007000E-7	1.126775E-2
1.007500E-7	1.126433E-2
1.008000E-7	1.127460E-2
1.008500E-7	1.129173E-2
1.009000E-7	1.133284E-2
1.009500E-7	1.138766E-2
1.010000E-7	1.143562E-2
1.010500E-7	1.149386E-2
1.011000E-7	1.155895E-2
1.011500E-7	1.159664E-2
1.012000E-7	1.161377E-2
1.012500E-7	1.161719E-2
1.013000E-7	1.160692E-2
1.013500E-7	1.160006E-2
1.014000E-7	1.162062E-2
1.014500E-7	1.160692E-2
1.015000E-7	1.155895E-2
1.015500E-7	1.153497E-2
1.016000E-7	1.152127E-2
1.016500E-7	1.150071E-2
1.017000E-7	1.150756E-2
1.017500E-7	1.150756E-2
1.018000E-7	1.148016E-2
1.018500E-7	1.150071E-2
1.019000E-7	1.157266E-2
1.019500E-7	1.163090E-2
1.020000E-7	1.170969E-2
1.020500E-7	1.183645E-2
1.021000E-7	1.195978E-2
1.021500E-7	1.207969E-2
1.022000E-7	1.220302E-2
1.022500E-7	1.230237E-2
1.023000E-7	1.237432E-2
1.023500E-7	1.243256E-2
1.024000E-7	1.244968E-2
1.024500E-7	1.241543E-2
1.025000E-7	1.236061E-2
1.025500E-7	1.228867E-2
1.026000E-7	1.219959E-2
1.026500E-7	1.210024E-2
1.027000E-7	1.198376E-2
1.027500E-7	1.186386E-2
1.028000E-7	1.177136E-2
1.028500E-7	1.170284E-2
1.029000E-7	1.162062E-2
1.029500E-7	1.153497E-2
1.030000E-7	1.148016E-2
1.030500E-7	1.143562E-2
1.031000E-7	1.138081E-2
1.031500E-7	1.133970E-2
1.032000E-7	1.133970E-2
1.032500E-7	1.134312E-2
1.033000E-7	1.134655E-2
1.033500E-7	1.135340E-2
1.034000E-7	1.135683E-2
1.034500E-7	1.136710E-2
1.035000E-7	1.139108E-2
1.035500E-7	1.139794E-2
1.036000E-7	1.139108E-2
1.036500E-7	1.139108E-2
1.037000E-7	1.138766E-2
1.037500E-7	1.136025E-2
1.038000E-7	1.129173E-2
1.038500E-7	1.121636E-2
1.039000E-7	1.115470E-2
1.039500E-7	1.111701E-2
1.040000E-7	1.108618E-2
1.040500E-7	1.105192E-2
1.041000E-7	1.103479E-2
1.041500E-7	1.105535E-2
1.042000E-7	1.108275E-2
1.042500E-7	1.111701E-2
1.043000E-7	1.115812E-2
1.043500E-7	1.119581E-2
1.044000E-7	1.122322E-2
1.044500E-7	1.123349E-2
1.045000E-7	1.124035E-2
1.045500E-7	1.124377E-2
1.046000E-7	1.124720E-2
1.046500E-7	1.124720E-2
1.047000E-7	1.122664E-2
1.047500E-7	1.117868E-2
1.048000E-7	1.115470E-2
1.048500E-7	1.115127E-2
1.049000E-7	1.112044E-2
1.049500E-7	1.109303E-2
1.050000E-7	1.109303E-2
1.050500E-7	1.109988E-2
1.051000E-7	1.108961E-2
1.051500E-7	1.108618E-2
1.052000E-7	1.107933E-2
1.052500E-7	1.103479E-2
1.053000E-7	1.099026E-2
1.053500E-7	1.096285E-2
1.054000E-7	1.092516E-2
1.054500E-7	1.088748E-2
1.055000E-7	1.086007E-2
1.055500E-7	1.082924E-2
1.056000E-7	1.079498E-2
1.056500E-7	1.076072E-2
1.057000E-7	1.075044E-2
1.057500E-7	1.073331E-2
1.058000E-7	1.069563E-2
1.058500E-7	1.065452E-2
1.059000E-7	1.062711E-2
1.059500E-7	1.060656E-2
1.060000E-7	1.057915E-2
1.060500E-7	1.056887E-2
1.061000E-7	1.056202E-2
1.061500E-7	1.055517E-2
1.062000E-7	1.058257E-2
1.062500E-7	1.063739E-2
1.063000E-7	1.069905E-2
1.063500E-7	1.077442E-2
1.064000E-7	1.085665E-2
1.064500E-7	1.093544E-2
1.065000E-7	1.099368E-2
1.065500E-7	1.103479E-2
1.066000E-7	1.105877E-2
1.066500E-7	1.104507E-2
1.067000E-7	1.101424E-2
1.067500E-7	1.099026E-2
1.068000E-7	1.096285E-2
1.068500E-7	1.094572E-2
1.069000E-7	1.095257E-2
1.069500E-7	1.098340E-2
1.070000E-7	1.104164E-2
1.070500E-7	1.111016E-2
1.071000E-7	1.117525E-2
1.071500E-7	1.123007E-2
1.072000E-7	1.130201E-2
1.072500E-7	1.137053E-2
1.073000E-7	1.140136E-2
1.073500E-7	1.139794E-2
1.074000E-7	1.139451E-2
1.074500E-7	1.136368E-2
1.075000E-7	1.128831E-2
1.075500E-7	1.121636E-2
1.076000E-7	1.117525E-2
1.076500E-7	1.113757E-2
1.077000E-7	1.111359E-2
1.077500E-7	1.109988E-2
1.078000E-7	1.110331E-2
1.078500E-7	1.113757E-2
1.079000E-7	1.116840E-2
1.079500E-7	1.116498E-2
1.080000E-7	1.114099E-2
1.080500E-7	1.114099E-2
1.081000E-7	1.113414E-2
1.081500E-7	1.109303E-2
1.082000E-7	1.103479E-2
1.082500E-7	1.097313E-2
1.083000E-7	1.089433E-2
1.083500E-7	1.081554E-2
1.084000E-7	1.074017E-2
1.084500E-7	1.066137E-2
1.085000E-7	1.058600E-2
1.085500E-7	1.052433E-2
1.086000E-7	1.046609E-2
1.086500E-7	1.041813E-2
1.087000E-7	1.038387E-2
1.087500E-7	1.034961E-2
1.088000E-7	1.032906E-2
1.088500E-7	1.034961E-2
1.089000E-7	1.037702E-2
1.089500E-7	1.038387E-2
1.090000E-7	1.043184E-2
1.090500E-7	1.051748E-2
1.091000E-7	1.058600E-2
1.091500E-7	1.064424E-2
1.092000E-7	1.073674E-2
1.092500E-7	1.082239E-2
1.093000E-7	1.086692E-2
1.093500E-7	1.091831E-2
1.094000E-7	1.095942E-2
1.094500E-7	1.095257E-2
1.095000E-7	1.093544E-2
1.095500E-7	1.093202E-2
1.096000E-7	1.088063E-2
1.096500E-7	1.080868E-2
1.097000E-7	1.078813E-2
1.097500E-7	1.078470E-2
1.098000E-7	1.073674E-2
1.098500E-7	1.070248E-2
1.099000E-7	1.072989E-2
1.099500E-7	1.074359E-2
1.100000E-7	1.075387E-2
1.100500E-7	1.080868E-2
1.101000E-7	1.087720E-2
1.101500E-7	1.090461E-2
1.102000E-7	1.091489E-2
1.102500E-7	1.092174E-2
1.103000E-7	1.089776E-2
1.103500E-7	1.085322E-2
1.104000E-7	1.079841E-2
1.104500E-7	1.072989E-2
1.105000E-7	1.066137E-2
1.105500E-7	1.058600E-2
1.106000E-7	1.050035E-2
1.106500E-7	1.043526E-2
1.107000E-7	1.039415E-2
1.107500E-7	1.034961E-2
1.108000E-7	1.032563E-2
1.108500E-7	1.035304E-2
1.109000E-7	1.038387E-2
1.109500E-7	1.042498E-2
1.110000E-7	1.050035E-2
1.110500E-7	1.059628E-2
1.111000E-7	1.068878E-2
1.111500E-7	1.078128E-2
1.112000E-7	1.086350E-2
1.112500E-7	1.090461E-2
1.113000E-7	1.093544E-2
1.113500E-7	1.094914E-2
1.114000E-7	1.092859E-2
1.114500E-7	1.089090E-2
1.115000E-7	1.084637E-2
1.115500E-7	1.078128E-2
1.116000E-7	1.069220E-2
1.116500E-7	1.061683E-2
1.117000E-7	1.056202E-2
1.117500E-7	1.051063E-2
1.118000E-7	1.045924E-2
1.118500E-7	1.044554E-2
1.119000E-7	1.044896E-2
1.119500E-7	1.043526E-2
1.120000E-7	1.040785E-2
1.120500E-7	1.038730E-2
1.121000E-7	1.035989E-2
1.121500E-7	1.030508E-2
1.122000E-7	1.024341E-2
1.122500E-7	1.020573E-2
1.123000E-7	1.015776E-2
1.123500E-7	1.010638E-2
1.124000E-7	1.009267E-2
1.124500E-7	1.010638E-2
1.125000E-7	1.013378E-2
1.125500E-7	1.015434E-2
1.126000E-7	1.018517E-2
1.126500E-7	1.023999E-2
1.127000E-7	1.029480E-2
1.127500E-7	1.032221E-2
1.128000E-7	1.032906E-2
1.128500E-7	1.032563E-2
1.129000E-7	1.028452E-2
1.129500E-7	1.019887E-2
1.130000E-7	1.011665E-2
1.130500E-7	1.004471E-2
1.131000E-7	9.931655E-3
1.131500E-7	9.811749E-3
1.132000E-7	9.732954E-3
1.132500E-7	9.664436E-3
1.133000E-7	9.571937E-3
1.133500E-7	9.530826E-3
1.134000E-7	9.537678E-3
1.134500E-7	9.530826E-3
1.135000E-7	9.513697E-3
1.135500E-7	9.537678E-3
1.136000E-7	9.582215E-3
1.136500E-7	9.616474E-3
1.137000E-7	9.650732E-3
1.137500E-7	9.695269E-3
1.138000E-7	9.739806E-3
1.138500E-7	9.804897E-3
1.139000E-7	9.883693E-3
1.139500E-7	9.972766E-3
1.140000E-7	1.005156E-2
1.140500E-7	1.010980E-2
1.141000E-7	1.016804E-2
1.141500E-7	1.022286E-2
1.142000E-7	1.024341E-2
1.142500E-7	1.024684E-2
1.143000E-7	1.023999E-2
1.143500E-7	1.020573E-2
1.144000E-7	1.014749E-2
1.144500E-7	1.009952E-2
1.145000E-7	1.004471E-2
1.145500E-7	9.969340E-3
1.146000E-7	9.911100E-3
1.146500E-7	9.900822E-3
1.147000E-7	9.928230E-3
1.147500E-7	9.959063E-3
1.148000E-7	1.001045E-2
1.148500E-7	1.008582E-2
1.149000E-7	1.016462E-2
1.149500E-7	1.023313E-2
1.150000E-7	1.028795E-2
1.150500E-7	1.032563E-2
1.151000E-7	1.034961E-2
1.151500E-7	1.036332E-2
1.152000E-7	1.033248E-2
1.152500E-7	1.026054E-2
1.153000E-7	1.020915E-2
1.153500E-7	1.016804E-2
1.154000E-7	1.008925E-2
1.154500E-7	1.001388E-2
1.155000E-7	9.983044E-3
1.155500E-7	9.972766E-3
1.156000E-7	9.965914E-3
1.156500E-7	9.983044E-3
1.157000E-7	1.000017E-2
1.157500E-7	9.996747E-3
1.158000E-7	1.000360E-2
1.158500E-7	1.002415E-2
1.159000E-7	1.000360E-2
1.159500E-7	9.965914E-3
1.160000E-7	9.955637E-3
1.160500E-7	9.928230E-3
1.161000E-7	9.856286E-3
1.161500E-7	9.804897E-3
1.162000E-7	9.756935E-3
1.162500E-7	9.688417E-3
1.163000E-7	9.643881E-3
1.163500E-7	9.647307E-3
1.164000E-7	9.664436E-3
1.164500E-7	9.695269E-3
1.165000E-7	9.756935E-3
1.165500E-7	9.808323E-3
1.166000E-7	9.846008E-3
1.166500E-7	9.887119E-3
1.167000E-7	9.928230E-3
1.167500E-7	9.945359E-3
1.168000E-7	9.938507E-3
1.168500E-7	9.921378E-3
1.169000E-7	9.887119E-3
1.169500E-7	9.811749E-3
1.170000E-7	9.719250E-3
1.170500E-7	9.623325E-3
1.171000E-7	9.503419E-3
1.171500E-7	9.386939E-3
1.172000E-7	9.314995E-3
1.172500E-7	9.267033E-3
1.173000E-7	9.243051E-3
1.173500E-7	9.260181E-3
1.174000E-7	9.304718E-3
1.174500E-7	9.380087E-3
1.175000E-7	9.510271E-3
1.175500E-7	9.640455E-3
1.176000E-7	9.736380E-3
1.176500E-7	9.849434E-3
1.177000E-7	9.962488E-3
1.177500E-7	1.001388E-2
1.178000E-7	1.001730E-2
1.178500E-7	1.000360E-2
1.179000E-7	9.945359E-3
1.179500E-7	9.852860E-3
1.180000E-7	9.746657E-3
1.180500E-7	9.657584E-3
1.181000E-7	9.595918E-3
1.181500E-7	9.558233E-3
1.182000E-7	9.523974E-3
1.182500E-7	9.506845E-3
1.183000E-7	9.517123E-3
1.183500E-7	9.541104E-3
1.184000E-7	9.575363E-3
1.184500E-7	9.589066E-3
1.185000E-7	9.592492E-3
1.185500E-7	9.578789E-3
1.186000E-7	9.537678E-3
1.186500E-7	9.472586E-3
1.187000E-7	9.400642E-3
1.187500E-7	9.311569E-3
1.188000E-7	9.222496E-3
1.188500E-7	9.136849E-3
1.189000E-7	9.058053E-3
1.189500E-7	9.013517E-3
1.190000E-7	9.010091E-3
1.190500E-7	9.016943E-3
1.191000E-7	9.020369E-3
1.191500E-7	9.040924E-3
1.192000E-7	9.092312E-3
1.192500E-7	9.150552E-3
1.193000E-7	9.191663E-3
1.193500E-7	9.232774E-3
1.194000E-7	9.267033E-3
1.194500E-7	9.297866E-3
1.195000E-7	9.321847E-3
1.195500E-7	9.335551E-3
1.196000E-7	9.345828E-3
1.196500E-7	9.352680E-3
1.197000E-7	9.373235E-3
1.197500E-7	9.397217E-3
1.198000E-7	9.393791E-3
1.198500E-7	9.386939E-3
1.199000E-7	9.386939E-3
1.199500E-7	9.393791E-3
1.200000E-7	9.393791E-3
1.200500E-7	9.421198E-3
1.201000E-7	9.458883E-3
1.201500E-7	9.489716E-3
1.202000E-7	9.534252E-3
1.202500E-7	9.595918E-3
1.203000E-7	9.650732E-3
1.203500E-7	9.681565E-3
1.204000E-7	9.684991E-3
1.204500E-7	9.671288E-3
1.205000E-7	9.654158E-3
1.205500E-7	9.626751E-3
1.206000E-7	9.554807E-3
1.206500E-7	9.452031E-3
1.207000E-7	9.352680E-3
1.207500E-7	9.236200E-3
1.208000E-7	9.123145E-3
1.208500E-7	9.044350E-3
1.209000E-7	8.972406E-3
1.209500E-7	8.903888E-3
1.210000E-7	8.897037E-3
1.210500E-7	8.924444E-3
1.211000E-7	8.934721E-3
1.211500E-7	8.989536E-3
1.212000E-7	9.095738E-3
1.212500E-7	9.150552E-3
1.213000E-7	9.171108E-3
1.213500E-7	9.222496E-3
1.214000E-7	9.246477E-3
1.214500E-7	9.239626E-3
1.215000E-7	9.256755E-3
1.215500E-7	9.267033E-3
1.216000E-7	9.236200E-3
1.216500E-7	9.229348E-3
1.217000E-7	9.267033E-3
1.217500E-7	9.280736E-3
1.218000E-7	9.267033E-3
1.218500E-7	9.263607E-3
1.219000E-7	9.260181E-3
1.219500E-7	9.263607E-3
1.220000E-7	9.249903E-3
1.220500E-7	9.215644E-3
1.221000E-7	9.184811E-3
1.221500E-7	9.153978E-3
1.222000E-7	9.116294E-3
1.222500E-7	9.099164E-3
1.223000E-7	9.102590E-3
1.223500E-7	9.109442E-3
1.224000E-7	9.136849E-3
1.224500E-7	9.198515E-3
1.225000E-7	9.256755E-3
1.225500E-7	9.304718E-3
1.226000E-7	9.362958E-3
1.226500E-7	9.407494E-3
1.227000E-7	9.438327E-3
1.227500E-7	9.424624E-3
1.228000E-7	9.386939E-3
1.228500E-7	9.349254E-3
1.229000E-7	9.314995E-3
1.229500E-7	9.273884E-3
1.230000E-7	9.225922E-3
1.230500E-7	9.164256E-3
1.231000E-7	9.095738E-3
1.231500E-7	9.047776E-3
1.232000E-7	9.040924E-3
1.232500E-7	9.044350E-3
1.233000E-7	9.027220E-3
1.233500E-7	9.023795E-3
1.234000E-7	9.054628E-3
1.234500E-7	9.082035E-3
1.235000E-7	9.088886E-3
1.235500E-7	9.075183E-3
1.236000E-7	9.047776E-3
1.236500E-7	9.013517E-3
1.237000E-7	8.972406E-3
1.237500E-7	8.900462E-3
1.238000E-7	8.811389E-3
1.238500E-7	8.739446E-3
1.239000E-7	8.657224E-3
1.239500E-7	8.554448E-3
1.240000E-7	8.468800E-3
1.240500E-7	8.424264E-3
1.241000E-7	8.386579E-3
1.241500E-7	8.362598E-3
1.242000E-7	8.372875E-3
1.242500E-7	8.403708E-3
1.243000E-7	8.455097E-3
1.243500E-7	8.523615E-3
1.244000E-7	8.592132E-3
1.244500E-7	8.636669E-3
1.245000E-7	8.688057E-3
1.245500E-7	8.746297E-3
1.246000E-7	8.794260E-3
1.246500E-7	8.811389E-3
1.247000E-7	8.828519E-3
1.247500E-7	8.804538E-3
1.248000E-7	8.766853E-3
1.248500E-7	8.742872E-3
1.249000E-7	8.729168E-3
1.249500E-7	8.715464E-3
1.250000E-7	8.688057E-3
1.250500E-7	8.650373E-3
1.251000E-7	8.633243E-3
1.251500E-7	8.633243E-3
1.252000E-7	8.616114E-3
1.252500E-7	8.592132E-3
1.253000E-7	8.598984E-3
1.253500E-7	8.633243E-3
1.254000E-7	8.667502E-3
1.254500E-7	8.712039E-3
1.255000E-7	8.763427E-3
1.255500E-7	8.804538E-3
1.256000E-7	8.825093E-3
1.256500E-7	8.845648E-3
1.257000E-7	8.862778E-3
1.257500E-7	8.873055E-3
1.258000E-7	8.866204E-3
1.258500E-7	8.852500E-3
1.259000E-7	8.859352E-3
1.259500E-7	8.859352E-3
1.260000E-7	8.838796E-3
1.260500E-7	8.811389E-3
1.261000E-7	8.797686E-3
1.261500E-7	8.807963E-3
1.262000E-7	8.814815E-3
1.262500E-7	8.801112E-3
1.263000E-7	8.794260E-3
1.263500E-7	8.794260E-3
1.264000E-7	8.770279E-3
1.264500E-7	8.739446E-3
1.265000E-7	8.732594E-3
1.265500E-7	8.736020E-3
1.266000E-7	8.732594E-3
1.266500E-7	8.718890E-3
1.267000E-7	8.694909E-3
1.267500E-7	8.688057E-3
1.268000E-7	8.701761E-3
1.268500E-7	8.705187E-3
1.269000E-7	8.712039E-3
1.269500E-7	8.712039E-3
1.270000E-7	8.705187E-3
1.270500E-7	8.725742E-3
1.271000E-7	8.746297E-3
1.271500E-7	8.746297E-3
1.272000E-7	8.746297E-3
1.272500E-7	8.773705E-3
1.273000E-7	8.794260E-3
1.273500E-7	8.797686E-3
1.274000E-7	8.801112E-3
1.274500E-7	8.780556E-3
1.275000E-7	8.742872E-3
1.275500E-7	8.712039E-3
1.276000E-7	8.674354E-3
1.276500E-7	8.605836E-3
1.277000E-7	8.530466E-3
1.277500E-7	8.472226E-3
1.278000E-7	8.427690E-3
1.278500E-7	8.390005E-3
1.279000E-7	8.359172E-3
1.279500E-7	8.355746E-3
1.280000E-7	8.369450E-3
1.280500E-7	8.383153E-3
1.281000E-7	8.396857E-3
1.281500E-7	8.400283E-3
1.282000E-7	8.383153E-3
1.282500E-7	8.348894E-3
1.283000E-7	8.321487E-3
1.283500E-7	8.287228E-3
1.284000E-7	8.215284E-3
1.284500E-7	8.136489E-3
1.285000E-7	8.095378E-3
1.285500E-7	8.074823E-3
1.286000E-7	8.047416E-3
1.286500E-7	8.040564E-3
1.287000E-7	8.091952E-3
1.287500E-7	8.139915E-3
1.288000E-7	8.139915E-3
1.288500E-7	8.146767E-3
1.289000E-7	8.160470E-3
1.289500E-7	8.153618E-3
1.290000E-7	8.122785E-3
1.290500E-7	8.071397E-3
1.291000E-7	7.985750E-3
1.291500E-7	7.896677E-3
1.292000E-7	7.821307E-3
1.292500E-7	7.759641E-3
1.293000E-7	7.697975E-3
1.293500E-7	7.660290E-3
1.294000E-7	7.673994E-3
1.294500E-7	7.735660E-3
1.295000E-7	7.804178E-3
1.295500E-7	7.876121E-3
1.296000E-7	7.982324E-3
1.296500E-7	8.095378E-3
1.297000E-7	8.157044E-3
1.297500E-7	8.218710E-3
1.298000E-7	8.318061E-3
1.298500E-7	8.386579E-3
1.299000E-7	8.393431E-3
1.299500E-7	8.407134E-3
1.300000E-7	8.413986E-3
1.300500E-7	8.362598E-3
1.301000E-7	8.314635E-3
1.301500E-7	8.311209E-3
1.302000E-7	8.311209E-3
1.302500E-7	8.270099E-3
1.303000E-7	8.232414E-3
1.303500E-7	8.215284E-3
1.304000E-7	8.187877E-3
1.304500E-7	8.143341E-3
1.305000E-7	8.091952E-3
1.305500E-7	8.061119E-3
1.306000E-7	8.023435E-3
1.306500E-7	7.978898E-3
1.307000E-7	7.951491E-3
1.307500E-7	7.927510E-3
1.308000E-7	7.900103E-3
1.308500E-7	7.872695E-3
1.309000E-7	7.848714E-3
1.309500E-7	7.824733E-3
1.310000E-7	7.800752E-3
1.310500E-7	7.783622E-3
1.311000E-7	7.756215E-3
1.311500E-7	7.721956E-3
1.312000E-7	7.687697E-3
1.312500E-7	7.629457E-3
1.313000E-7	7.557514E-3
1.313500E-7	7.533532E-3
1.314000E-7	7.540384E-3
1.314500E-7	7.519829E-3
1.315000E-7	7.502699E-3
1.315500E-7	7.536958E-3
1.316000E-7	7.588347E-3
1.316500E-7	7.632883E-3
1.317000E-7	7.704827E-3
1.317500E-7	7.780196E-3
1.318000E-7	7.835011E-3
1.318500E-7	7.896677E-3
1.319000E-7	7.954917E-3
1.319500E-7	7.982324E-3
1.320000E-7	7.982324E-3
1.320500E-7	7.965194E-3
1.321000E-7	7.917232E-3
1.321500E-7	7.862418E-3
1.322000E-7	7.821307E-3
1.322500E-7	7.773345E-3
1.323000E-7	7.715105E-3
1.323500E-7	7.673994E-3
1.324000E-7	7.663716E-3
1.324500E-7	7.643161E-3
1.325000E-7	7.626031E-3
1.325500E-7	7.643161E-3
1.326000E-7	7.687697E-3
1.326500E-7	7.721956E-3
1.327000E-7	7.759641E-3
1.327500E-7	7.790474E-3
1.328000E-7	7.811029E-3
1.328500E-7	7.838437E-3
1.329000E-7	7.848714E-3
1.329500E-7	7.828159E-3
1.330000E-7	7.793900E-3
1.330500E-7	7.752789E-3
1.331000E-7	7.687697E-3
1.331500E-7	7.636309E-3
1.332000E-7	7.619180E-3
1.332500E-7	7.581495E-3
1.333000E-7	7.530106E-3
1.333500E-7	7.509551E-3
1.334000E-7	7.506125E-3
1.334500E-7	7.485570E-3
1.335000E-7	7.451311E-3
1.335500E-7	7.417052E-3
1.336000E-7	7.393071E-3
1.336500E-7	7.369090E-3
1.337000E-7	7.327979E-3
1.337500E-7	7.276591E-3
1.338000E-7	7.235480E-3
1.338500E-7	7.204647E-3
1.339000E-7	7.180666E-3
1.339500E-7	7.194369E-3
1.340000E-7	7.238906E-3
1.340500E-7	7.286868E-3
1.341000E-7	7.355386E-3
1.341500E-7	7.461589E-3
1.342000E-7	7.571217E-3
1.342500E-7	7.660290E-3
1.343000E-7	7.749363E-3
1.343500E-7	7.814455E-3
1.344000E-7	7.841862E-3
1.344500E-7	7.852140E-3
1.345000E-7	7.817881E-3
1.345500E-7	7.725382E-3
1.346000E-7	7.602050E-3
1.346500E-7	7.468440E-3
1.347000E-7	7.338257E-3
1.347500E-7	7.228628E-3
1.348000E-7	7.125851E-3
1.348500E-7	7.019649E-3
1.349000E-7	6.944279E-3
1.349500E-7	6.916872E-3
1.350000E-7	6.899743E-3
1.350500E-7	6.882613E-3
1.351000E-7	6.899743E-3
1.351500E-7	6.957983E-3
1.352000E-7	7.019649E-3
1.352500E-7	7.091593E-3
1.353000E-7	7.163536E-3
1.353500E-7	7.221776E-3
1.354000E-7	7.293720E-3
1.354500E-7	7.372515E-3
1.355000E-7	7.437607E-3
1.355500E-7	7.485570E-3
1.356000E-7	7.523255E-3
1.356500E-7	7.550662E-3
1.357000E-7	7.564365E-3
1.357500E-7	7.571217E-3
1.358000E-7	7.554088E-3
1.358500E-7	7.530106E-3
1.359000E-7	7.495848E-3
1.359500E-7	7.444459E-3
1.360000E-7	7.399923E-3
1.360500E-7	7.386219E-3
1.361000E-7	7.417052E-3
1.361500E-7	7.458163E-3
1.362000E-7	7.506125E-3
1.362500E-7	7.560939E-3
1.363000E-7	7.598624E-3
1.363500E-7	7.632883E-3
1.364000E-7	7.656864E-3
1.364500E-7	7.656864E-3
1.365000E-7	7.632883E-3
1.365500E-7	7.591772E-3
1.366000E-7	7.516403E-3
1.366500E-7	7.423904E-3
1.367000E-7	7.331405E-3
1.367500E-7	7.238906E-3
1.368000E-7	7.142981E-3
1.368500E-7	7.071037E-3
1.369000E-7	7.019649E-3
1.369500E-7	6.988816E-3
1.370000E-7	6.975112E-3
1.370500E-7	6.981964E-3
1.371000E-7	6.992242E-3
1.371500E-7	7.012797E-3
1.372000E-7	7.053908E-3
1.372500E-7	7.091593E-3
1.373000E-7	7.095018E-3
1.373500E-7	7.081315E-3
1.374000E-7	7.084741E-3
1.374500E-7	7.071037E-3
1.375000E-7	7.019649E-3
1.375500E-7	6.961409E-3
1.376000E-7	6.903169E-3
1.376500E-7	6.841503E-3
1.377000E-7	6.810670E-3
1.377500E-7	6.803818E-3
1.378000E-7	6.790114E-3
1.378500E-7	6.793540E-3
1.379000E-7	6.827799E-3
1.379500E-7	6.875761E-3
1.380000E-7	6.930576E-3
1.380500E-7	6.985390E-3
1.381000E-7	7.026501E-3
1.381500E-7	7.067611E-3
1.382000E-7	7.119000E-3
1.382500E-7	7.139555E-3
1.383000E-7	7.129277E-3
1.383500E-7	7.136129E-3
1.384000E-7	7.166962E-3
1.384500E-7	7.170388E-3
1.385000E-7	7.163536E-3
1.385500E-7	7.170388E-3
1.386000E-7	7.190943E-3
1.386500E-7	7.211499E-3
1.387000E-7	7.218350E-3
1.387500E-7	7.228628E-3
1.388000E-7	7.228628E-3
1.388500E-7	7.225202E-3
1.389000E-7	7.208073E-3
1.389500E-7	7.177240E-3
1.390000E-7	7.136129E-3
1.390500E-7	7.105296E-3
1.391000E-7	7.095018E-3
1.391500E-7	7.101870E-3
1.392000E-7	7.119000E-3
1.392500E-7	7.139555E-3
1.393000E-7	7.184092E-3
1.393500E-7	7.232054E-3
1.394000E-7	7.262887E-3
1.394500E-7	7.293720E-3
1.395000E-7	7.327979E-3
1.395500E-7	7.334831E-3
1.396000E-7	7.293720E-3
1.396500E-7	7.225202E-3
1.397000E-7	7.142981E-3
1.397500E-7	7.067611E-3
1.398000E-7	6.981964E-3
1.398500E-7	6.879187E-3
1.399000E-7	6.793540E-3
1.399500E-7	6.749003E-3
1.400000E-7	6.755855E-3
1.400500E-7	6.772985E-3
1.401000E-7	6.803818E-3
1.401500E-7	6.851780E-3
1.402000E-7	6.889465E-3
1.402500E-7	6.923724E-3
1.403000E-7	6.964835E-3
1.403500E-7	7.009371E-3
1.404000E-7	7.023075E-3
1.404500E-7	7.005945E-3
1.405000E-7	6.968260E-3
1.405500E-7	6.937427E-3
1.406000E-7	6.920298E-3
1.406500E-7	6.886039E-3
1.407000E-7	6.858632E-3
1.407500E-7	6.872336E-3
1.408000E-7	6.889465E-3
1.408500E-7	6.889465E-3
1.409000E-7	6.927150E-3
1.409500E-7	6.995668E-3
1.410000E-7	7.023075E-3
1.410500E-7	7.009371E-3
1.411000E-7	6.985390E-3
1.411500E-7	6.957983E-3
1.412000E-7	6.906594E-3
1.412500E-7	6.841503E-3
1.413000E-7	6.772985E-3
1.413500E-7	6.718170E-3
1.414000E-7	6.701041E-3
1.414500E-7	6.704467E-3
1.415000E-7	6.714745E-3
1.415500E-7	6.721596E-3
1.416000E-7	6.725022E-3
1.416500E-7	6.749003E-3
1.417000E-7	6.796966E-3
1.417500E-7	6.803818E-3
1.418000E-7	6.759281E-3
1.418500E-7	6.718170E-3
1.419000E-7	6.670208E-3
1.419500E-7	6.577709E-3
1.420000E-7	6.498914E-3
1.420500E-7	6.457803E-3
1.421000E-7	6.413266E-3
1.421500E-7	6.382433E-3
1.422000E-7	6.389285E-3
1.422500E-7	6.402989E-3
1.423000E-7	6.426970E-3
1.423500E-7	6.488636E-3
1.424000E-7	6.546876E-3
1.424500E-7	6.574283E-3
1.425000E-7	6.622246E-3
1.425500E-7	6.663356E-3
1.426000E-7	6.666782E-3
1.426500E-7	6.656504E-3
1.427000E-7	6.642801E-3
1.427500E-7	6.605116E-3
1.428000E-7	6.574283E-3
1.428500E-7	6.560580E-3
1.429000E-7	6.546876E-3
1.429500E-7	6.522895E-3
1.430000E-7	6.498914E-3
1.430500E-7	6.468081E-3
1.431000E-7	6.440673E-3
1.431500E-7	6.402989E-3
1.432000E-7	6.351600E-3
1.432500E-7	6.307064E-3
1.433000E-7	6.255675E-3
1.433500E-7	6.173454E-3
1.434000E-7	6.091233E-3
1.434500E-7	6.015863E-3
1.435000E-7	5.933642E-3
1.435500E-7	5.889105E-3
1.436000E-7	5.885679E-3
1.436500E-7	5.895957E-3
1.437000E-7	5.933642E-3
1.437500E-7	6.002159E-3
1.438000E-7	6.074103E-3
1.438500E-7	6.146047E-3
1.439000E-7	6.248824E-3
1.439500E-7	6.341323E-3
1.440000E-7	6.396137E-3
1.440500E-7	6.444099E-3
1.441000E-7	6.474932E-3
1.441500E-7	6.474932E-3
1.442000E-7	6.468081E-3
1.442500E-7	6.440673E-3
1.443000E-7	6.396137E-3
1.443500E-7	6.361878E-3
1.444000E-7	6.334471E-3
1.444500E-7	6.313915E-3
1.445000E-7	6.320767E-3
1.445500E-7	6.368730E-3
1.446000E-7	6.399563E-3
1.446500E-7	6.423544E-3
1.447000E-7	6.495488E-3
1.447500E-7	6.577709E-3
1.448000E-7	6.618820E-3
1.448500E-7	6.646227E-3
1.449000E-7	6.680486E-3
1.449500E-7	6.687337E-3
1.450000E-7	6.670208E-3
1.450500E-7	6.646227E-3
1.451000E-7	6.622246E-3
1.451500E-7	6.584561E-3
1.452000E-7	6.522895E-3
1.452500E-7	6.450951E-3
1.453000E-7	6.379007E-3
1.453500E-7	6.317341E-3
1.454000E-7	6.293360E-3
1.454500E-7	6.272805E-3
1.455000E-7	6.238546E-3
1.455500E-7	6.204287E-3
1.456000E-7	6.190583E-3
1.456500E-7	6.211139E-3
1.457000E-7	6.235120E-3
1.457500E-7	6.241972E-3
1.458000E-7	6.248824E-3
1.458500E-7	6.238546E-3
1.459000E-7	6.197435E-3
1.459500E-7	6.170028E-3
1.460000E-7	6.132343E-3
1.460500E-7	6.046696E-3
1.461000E-7	5.961049E-3
1.461500E-7	5.899383E-3
1.462000E-7	5.858272E-3
1.462500E-7	5.810310E-3
1.463000E-7	5.786328E-3
1.463500E-7	5.813735E-3
1.464000E-7	5.837717E-3
1.464500E-7	5.865124E-3
1.465000E-7	5.919938E-3
1.465500E-7	5.988456E-3
1.466000E-7	6.026141E-3
1.466500E-7	6.056974E-3
1.467000E-7	6.077529E-3
1.467500E-7	6.053548E-3
1.468000E-7	6.009011E-3
1.468500E-7	5.974752E-3
1.469000E-7	5.906235E-3
1.469500E-7	5.813735E-3
1.470000E-7	5.779477E-3
1.470500E-7	5.782902E-3
1.471000E-7	5.789754E-3
1.471500E-7	5.830865E-3
1.472000E-7	5.906235E-3
1.472500E-7	5.998734E-3
1.473000E-7	6.125491E-3
1.473500E-7	6.259101E-3
1.474000E-7	6.351600E-3
1.474500E-7	6.426970E-3
1.475000E-7	6.492062E-3
1.475500E-7	6.526321E-3
1.476000E-7	6.533172E-3
1.476500E-7	6.509191E-3
1.477000E-7	6.437247E-3
1.477500E-7	6.334471E-3
1.478000E-7	6.238546E-3
1.478500E-7	6.139195E-3
1.479000E-7	6.060400E-3
1.479500E-7	6.026141E-3
1.480000E-7	6.019289E-3
1.480500E-7	6.032992E-3
1.481000E-7	6.087807E-3
1.481500E-7	6.159750E-3
1.482000E-7	6.214565E-3
1.482500E-7	6.296786E-3
1.483000E-7	6.416692E-3
1.483500E-7	6.492062E-3
1.484000E-7	6.526321E-3
1.484500E-7	6.581135E-3
1.485000E-7	6.611968E-3
1.485500E-7	6.570857E-3
1.486000E-7	6.522895E-3
1.486500E-7	6.471506E-3
1.487000E-7	6.375581E-3
1.487500E-7	6.272805E-3
1.488000E-7	6.187158E-3
1.488500E-7	6.084381E-3
1.489000E-7	6.009011E-3
1.489500E-7	5.954197E-3
1.490000E-7	5.875402E-3
1.490500E-7	5.806884E-3
1.491000E-7	5.803458E-3
1.491500E-7	5.796606E-3
1.492000E-7	5.765773E-3
1.492500E-7	5.765773E-3
1.493000E-7	5.762347E-3
1.493500E-7	5.728088E-3
1.494000E-7	5.707533E-3
1.494500E-7	5.690403E-3
1.495000E-7	5.632163E-3
1.495500E-7	5.587627E-3
1.496000E-7	5.549942E-3
1.496500E-7	5.484850E-3
1.497000E-7	5.430036E-3
1.497500E-7	5.406055E-3
1.498000E-7	5.388925E-3
1.498500E-7	5.388925E-3
1.499000E-7	5.426610E-3
1.499500E-7	5.484850E-3
1.500000E-7	5.549942E-3
1.500500E-7	5.656145E-3
1.501000E-7	5.796606E-3
1.501500E-7	5.906235E-3
1.502000E-7	5.995308E-3
1.502500E-7	6.080955E-3
1.503000E-7	6.159750E-3
1.503500E-7	6.211139E-3
1.504000E-7	6.224842E-3
1.504500E-7	6.221416E-3
1.505000E-7	6.204287E-3
1.505500E-7	6.166602E-3
1.506000E-7	6.104936E-3
1.506500E-7	6.036418E-3
1.507000E-7	5.971326E-3
1.507500E-7	5.923364E-3
1.508000E-7	5.871976E-3
1.508500E-7	5.796606E-3
1.509000E-7	5.734940E-3
1.509500E-7	5.690403E-3
1.510000E-7	5.635589E-3
1.510500E-7	5.577349E-3
1.511000E-7	5.529387E-3
1.511500E-7	5.488276E-3
1.512000E-7	5.471146E-3
1.512500E-7	5.488276E-3
1.513000E-7	5.505405E-3
1.513500E-7	5.525961E-3
1.514000E-7	5.563646E-3
1.514500E-7	5.601330E-3
1.515000E-7	5.628737E-3
1.515500E-7	5.662996E-3
1.516000E-7	5.686978E-3
1.516500E-7	5.676700E-3
1.517000E-7	5.652719E-3
1.517500E-7	5.608182E-3
1.518000E-7	5.549942E-3
1.518500E-7	5.484850E-3
1.519000E-7	5.426610E-3
1.519500E-7	5.378647E-3
1.520000E-7	5.354666E-3
1.520500E-7	5.371796E-3
1.521000E-7	5.375222E-3
1.521500E-7	5.368370E-3
1.522000E-7	5.375222E-3
1.522500E-7	5.409480E-3
1.523000E-7	5.436888E-3
1.523500E-7	5.464295E-3
1.524000E-7	5.488276E-3
1.524500E-7	5.498554E-3
1.525000E-7	5.488276E-3
1.525500E-7	5.481424E-3
1.526000E-7	5.477998E-3
1.526500E-7	5.467721E-3
1.527000E-7	5.443739E-3
1.527500E-7	5.426610E-3
1.528000E-7	5.443739E-3
1.528500E-7	5.471146E-3
1.529000E-7	5.460869E-3
1.529500E-7	5.477998E-3
1.530000E-7	5.536238E-3
1.530500E-7	5.584201E-3
1.531000E-7	5.604756E-3
1.531500E-7	5.649293E-3
1.532000E-7	5.717811E-3
1.532500E-7	5.765773E-3
1.533000E-7	5.800032E-3
1.533500E-7	5.834291E-3
1.534000E-7	5.851420E-3
1.534500E-7	5.875402E-3
1.535000E-7	5.909660E-3
1.535500E-7	5.909660E-3
1.536000E-7	5.875402E-3
1.536500E-7	5.861698E-3
1.537000E-7	5.851420E-3
1.537500E-7	5.834291E-3
1.538000E-7	5.813735E-3
1.538500E-7	5.786328E-3
1.539000E-7	5.789754E-3
1.539500E-7	5.827439E-3
1.540000E-7	5.861698E-3
1.540500E-7	5.865124E-3
1.541000E-7	5.875402E-3
1.541500E-7	5.916512E-3
1.542000E-7	5.947345E-3
1.542500E-7	5.950771E-3
1.543000E-7	5.961049E-3
1.543500E-7	5.947345E-3
1.544000E-7	5.913086E-3
1.544500E-7	5.885679E-3
1.545000E-7	5.844569E-3
1.545500E-7	5.772625E-3
1.546000E-7	5.693829E-3
1.546500E-7	5.615034E-3
1.547000E-7	5.546516E-3
1.547500E-7	5.484850E-3
1.548000E-7	5.430036E-3
1.548500E-7	5.399203E-3
1.549000E-7	5.402629E-3
1.549500E-7	5.426610E-3
1.550000E-7	5.460869E-3
1.550500E-7	5.508831E-3
1.551000E-7	5.570497E-3
1.551500E-7	5.615034E-3
1.552000E-7	5.639015E-3
1.552500E-7	5.680126E-3
1.553000E-7	5.741792E-3
1.553500E-7	5.772625E-3
1.554000E-7	5.762347E-3
1.554500E-7	5.745218E-3
1.555000E-7	5.704107E-3
1.555500E-7	5.642441E-3
1.556000E-7	5.584201E-3
1.556500E-7	5.549942E-3
1.557000E-7	5.498554E-3
1.557500E-7	5.464295E-3
1.558000E-7	5.481424E-3
1.558500E-7	5.508831E-3
1.559000E-7	5.522535E-3
1.559500E-7	5.567071E-3
1.560000E-7	5.639015E-3
1.560500E-7	5.683552E-3
1.561000E-7	5.714385E-3
1.561500E-7	5.752069E-3
1.562000E-7	5.762347E-3
1.562500E-7	5.741792E-3
1.563000E-7	5.690403E-3
1.563500E-7	5.618460E-3
1.564000E-7	5.573923E-3
1.564500E-7	5.536238E-3
1.565000E-7	5.474572E-3
1.565500E-7	5.440313E-3
1.566000E-7	5.440313E-3
1.566500E-7	5.433462E-3
1.567000E-7	5.440313E-3
1.567500E-7	5.501979E-3
1.568000E-7	5.553368E-3
1.568500E-7	5.580775E-3
1.569000E-7	5.632163E-3
1.569500E-7	5.666422E-3
1.570000E-7	5.659570E-3
1.570500E-7	5.639015E-3
1.571000E-7	5.615034E-3
1.571500E-7	5.580775E-3
1.572000E-7	5.525961E-3
1.572500E-7	5.457443E-3
1.573000E-7	5.402629E-3
1.573500E-7	5.392351E-3
1.574000E-7	5.388925E-3
1.574500E-7	5.399203E-3
1.575000E-7	5.430036E-3
1.575500E-7	5.474572E-3
1.576000E-7	5.536238E-3
1.576500E-7	5.628737E-3
1.577000E-7	5.717811E-3
1.577500E-7	5.779477E-3
1.578000E-7	5.847994E-3
1.578500E-7	5.899383E-3
1.579000E-7	5.895957E-3
1.579500E-7	5.844569E-3
1.580000E-7	5.782902E-3
1.580500E-7	5.704107E-3
1.581000E-7	5.601330E-3
1.581500E-7	5.477998E-3
1.582000E-7	5.337537E-3
1.582500E-7	5.217631E-3
1.583000E-7	5.142261E-3
1.583500E-7	5.090873E-3
1.584000E-7	5.042910E-3
1.584500E-7	5.022355E-3
1.585000E-7	5.039484E-3
1.585500E-7	5.080595E-3
1.586000E-7	5.142261E-3
1.586500E-7	5.200501E-3
1.587000E-7	5.238186E-3
1.587500E-7	5.293000E-3
1.588000E-7	5.354666E-3
1.588500E-7	5.378647E-3
1.589000E-7	5.399203E-3
1.589500E-7	5.440313E-3
1.590000E-7	5.481424E-3
1.590500E-7	5.501979E-3
1.591000E-7	5.512257E-3
1.591500E-7	5.519109E-3
1.592000E-7	5.536238E-3
1.592500E-7	5.549942E-3
1.593000E-7	5.543090E-3
1.593500E-7	5.529387E-3
1.594000E-7	5.512257E-3
1.594500E-7	5.505405E-3
1.595000E-7	5.477998E-3
1.595500E-7	5.423184E-3
1.596000E-7	5.358092E-3
1.596500E-7	5.299852E-3
1.597000E-7	5.241612E-3
1.597500E-7	5.183372E-3
1.598000E-7	5.131983E-3
1.598500E-7	5.094299E-3
1.599000E-7	5.060040E-3
1.599500E-7	5.029207E-3
1.600000E-7	4.991522E-3
1.600500E-7	4.970967E-3
1.601000E-7	5.001800E-3
1.601500E-7	5.066891E-3
1.602000E-7	5.131983E-3
1.602500E-7	5.210779E-3
1.603000E-7	5.323833E-3
1.603500E-7	5.433462E-3
1.604000E-7	5.522535E-3
1.604500E-7	5.604756E-3
1.605000E-7	5.666422E-3
1.605500E-7	5.683552E-3
1.606000E-7	5.683552E-3
1.606500E-7	5.662996E-3
1.607000E-7	5.608182E-3
1.607500E-7	5.529387E-3
1.608000E-7	5.454017E-3
1.608500E-7	5.371796E-3
1.609000E-7	5.296426E-3
1.609500E-7	5.255315E-3
1.610000E-7	5.245038E-3
1.610500E-7	5.286148E-3
1.611000E-7	5.347814E-3
1.611500E-7	5.412906E-3
1.612000E-7	5.484850E-3
1.612500E-7	5.577349E-3
1.613000E-7	5.659570E-3
1.613500E-7	5.697255E-3
1.614000E-7	5.724662E-3
1.614500E-7	5.731514E-3
1.615000E-7	5.693829E-3
1.615500E-7	5.645867E-3
1.616000E-7	5.597904E-3
1.616500E-7	5.546516E-3
1.617000E-7	5.498554E-3
1.617500E-7	5.471146E-3
1.618000E-7	5.495128E-3
1.618500E-7	5.546516E-3
1.619000E-7	5.611608E-3
1.619500E-7	5.690403E-3
1.620000E-7	5.752069E-3
1.620500E-7	5.786328E-3
1.621000E-7	5.803458E-3
1.621500E-7	5.796606E-3
1.622000E-7	5.738366E-3
1.622500E-7	5.618460E-3
1.623000E-7	5.477998E-3
1.623500E-7	5.330685E-3
1.624000E-7	5.145687E-3
1.624500E-7	4.964115E-3
1.625000E-7	4.823653E-3
1.625500E-7	4.696895E-3
1.626000E-7	4.607822E-3
1.626500E-7	4.587267E-3
1.627000E-7	4.618100E-3
1.627500E-7	4.669488E-3
1.628000E-7	4.768839E-3
1.628500E-7	4.881893E-3
1.629000E-7	4.964115E-3
1.629500E-7	5.018929E-3
1.630000E-7	5.080595E-3
1.630500E-7	5.149113E-3
1.631000E-7	5.176520E-3
1.631500E-7	5.149113E-3
1.632000E-7	5.111428E-3
1.632500E-7	5.077169E-3
1.633000E-7	5.046336E-3
1.633500E-7	5.005225E-3
1.634000E-7	4.977818E-3
1.634500E-7	4.970967E-3
1.635000E-7	4.981244E-3
1.635500E-7	5.008651E-3
1.636000E-7	5.046336E-3
1.636500E-7	5.084021E-3
1.637000E-7	5.125132E-3
1.637500E-7	5.162816E-3
1.638000E-7	5.186798E-3
1.638500E-7	5.203927E-3
1.639000E-7	5.217631E-3
1.639500E-7	5.227908E-3
1.640000E-7	5.227908E-3
1.640500E-7	5.221057E-3
1.641000E-7	5.214205E-3
1.641500E-7	5.224482E-3
1.642000E-7	5.251890E-3
1.642500E-7	5.265593E-3
1.643000E-7	5.279297E-3
1.643500E-7	5.327259E-3
1.644000E-7	5.364944E-3
1.644500E-7	5.334111E-3
1.645000E-7	5.310130E-3
1.645500E-7	5.310130E-3
1.646000E-7	5.272445E-3
1.646500E-7	5.207353E-3
1.647000E-7	5.162816E-3
1.647500E-7	5.111428E-3
1.648000E-7	5.042910E-3
1.648500E-7	5.001800E-3
1.649000E-7	4.981244E-3
1.649500E-7	4.943559E-3
1.650000E-7	4.909301E-3
1.650500E-7	4.888745E-3
1.651000E-7	4.864764E-3
1.651500E-7	4.833931E-3
1.652000E-7	4.803098E-3
1.652500E-7	4.755135E-3
1.653000E-7	4.693469E-3
1.653500E-7	4.621526E-3
1.654000E-7	4.556434E-3
1.654500E-7	4.518749E-3
1.655000E-7	4.481064E-3
1.655500E-7	4.457083E-3
1.656000E-7	4.484490E-3
1.656500E-7	4.529027E-3
1.657000E-7	4.566712E-3
1.657500E-7	4.645507E-3
1.658000E-7	4.734580E-3
1.658500E-7	4.799672E-3
1.659000E-7	4.881893E-3
1.659500E-7	4.991522E-3
1.660000E-7	5.053188E-3
1.660500E-7	5.056614E-3
1.661000E-7	5.060040E-3
1.661500E-7	5.056614E-3
1.662000E-7	5.012077E-3
1.662500E-7	4.953837E-3
1.663000E-7	4.902449E-3
1.663500E-7	4.857912E-3
1.664000E-7	4.837357E-3
1.664500E-7	4.827079E-3
1.665000E-7	4.816801E-3
1.665500E-7	4.833931E-3
1.666000E-7	4.861338E-3
1.666500E-7	4.871616E-3
1.667000E-7	4.892171E-3
1.667500E-7	4.946985E-3
1.668000E-7	4.964115E-3
1.668500E-7	4.946985E-3
1.669000E-7	4.960689E-3
1.669500E-7	4.984670E-3
1.670000E-7	4.967541E-3
1.670500E-7	4.957263E-3
1.671000E-7	4.977818E-3
1.671500E-7	4.991522E-3
1.672000E-7	5.022355E-3
1.672500E-7	5.060040E-3
1.673000E-7	5.080595E-3
1.673500E-7	5.111428E-3
1.674000E-7	5.149113E-3
1.674500E-7	5.149113E-3
1.675000E-7	5.121706E-3
1.675500E-7	5.077169E-3
1.676000E-7	5.018929E-3
1.676500E-7	4.960689E-3
1.677000E-7	4.923004E-3
1.677500E-7	4.888745E-3
1.678000E-7	4.830505E-3
1.678500E-7	4.809950E-3
1.679000E-7	4.844209E-3
1.679500E-7	4.888745E-3
1.680000E-7	4.943559E-3
1.680500E-7	5.022355E-3
1.681000E-7	5.114854E-3
1.681500E-7	5.197075E-3
1.682000E-7	5.269019E-3
1.682500E-7	5.306704E-3
1.683000E-7	5.299852E-3
1.683500E-7	5.245038E-3
1.684000E-7	5.149113E-3
1.684500E-7	5.025781E-3
1.685000E-7	4.909301E-3
1.685500E-7	4.785968E-3
1.686000E-7	4.662636E-3
1.686500E-7	4.553008E-3
1.687000E-7	4.470787E-3
1.687500E-7	4.429676E-3
1.688000E-7	4.453657E-3
1.688500E-7	4.498194E-3
1.689000E-7	4.542730E-3
1.689500E-7	4.607822E-3
1.690000E-7	4.683192E-3
1.690500E-7	4.741432E-3
1.691000E-7	4.782543E-3
1.691500E-7	4.820227E-3
1.692000E-7	4.830505E-3
1.692500E-7	4.820227E-3
1.693000E-7	4.792820E-3
1.693500E-7	4.748284E-3
1.694000E-7	4.703747E-3
1.694500E-7	4.690044E-3
1.695000E-7	4.676340E-3
1.695500E-7	4.648933E-3
1.696000E-7	4.645507E-3
1.696500E-7	4.672914E-3
1.697000E-7	4.714025E-3
1.697500E-7	4.761987E-3
1.698000E-7	4.806524E-3
1.698500E-7	4.847634E-3
1.699000E-7	4.905875E-3
1.699500E-7	4.981244E-3
1.700000E-7	5.039484E-3
1.700500E-7	5.073743E-3
1.701000E-7	5.077169E-3
1.701500E-7	5.070317E-3
1.702000E-7	5.066891E-3
1.702500E-7	5.049762E-3
1.703000E-7	5.001800E-3
1.703500E-7	4.946985E-3
1.704000E-7	4.916152E-3
1.704500E-7	4.868190E-3
1.705000E-7	4.806524E-3
1.705500E-7	4.761987E-3
1.706000E-7	4.748284E-3
1.706500E-7	4.755135E-3
1.707000E-7	4.768839E-3
1.707500E-7	4.806524E-3
1.708000E-7	4.861338E-3
1.708500E-7	4.916152E-3
1.709000E-7	4.964115E-3
1.709500E-7	5.001800E-3
1.710000E-7	5.012077E-3
1.710500E-7	4.991522E-3
1.711000E-7	4.946985E-3
1.711500E-7	4.868190E-3
1.712000E-7	4.779117E-3
1.712500E-7	4.700321E-3
1.713000E-7	4.604396E-3
1.713500E-7	4.481064E-3
1.714000E-7	4.409121E-3
1.714500E-7	4.385139E-3
1.715000E-7	4.368010E-3
1.715500E-7	4.398843E-3
1.716000E-7	4.491342E-3
1.716500E-7	4.587267E-3
1.717000E-7	4.676340E-3
1.717500E-7	4.785968E-3
1.718000E-7	4.909301E-3
1.718500E-7	4.994948E-3
1.719000E-7	5.029207E-3
1.719500E-7	5.039484E-3
1.720000E-7	5.022355E-3
1.720500E-7	4.960689E-3
1.721000E-7	4.875042E-3
1.721500E-7	4.779117E-3
1.722000E-7	4.669488E-3
1.722500E-7	4.594119E-3
1.723000E-7	4.563286E-3
1.723500E-7	4.535878E-3
1.724000E-7	4.518749E-3
1.724500E-7	4.559860E-3
1.725000E-7	4.635229E-3
1.725500E-7	4.710599E-3
1.726000E-7	4.789394E-3
1.726500E-7	4.868190E-3
1.727000E-7	4.929856E-3
1.727500E-7	4.970967E-3
1.728000E-7	4.988096E-3
1.728500E-7	4.974392E-3
1.729000E-7	4.933282E-3
1.729500E-7	4.909301E-3
1.730000E-7	4.902449E-3
1.730500E-7	4.881893E-3
1.731000E-7	4.830505E-3
1.731500E-7	4.785968E-3
1.732000E-7	4.779117E-3
1.732500E-7	4.785968E-3
1.733000E-7	4.782543E-3
1.733500E-7	4.779117E-3
1.734000E-7	4.775691E-3
1.734500E-7	4.768839E-3
1.735000E-7	4.727728E-3
1.735500E-7	4.662636E-3
1.736000E-7	4.600970E-3
1.736500E-7	4.532453E-3
1.737000E-7	4.460509E-3
1.737500E-7	4.398843E-3
1.738000E-7	4.340603E-3
1.738500E-7	4.299492E-3
1.739000E-7	4.306344E-3
1.739500E-7	4.323473E-3
1.740000E-7	4.340603E-3
1.740500E-7	4.391991E-3
1.741000E-7	4.470787E-3
1.741500E-7	4.532453E-3
1.742000E-7	4.594119E-3
1.742500E-7	4.683192E-3
1.743000E-7	4.755135E-3
1.743500E-7	4.789394E-3
1.744000E-7	4.806524E-3
1.744500E-7	4.803098E-3
1.745000E-7	4.772265E-3
1.745500E-7	4.717451E-3
1.746000E-7	4.666062E-3
1.746500E-7	4.614674E-3
1.747000E-7	4.563286E-3
1.747500E-7	4.518749E-3
1.748000E-7	4.491342E-3
1.748500E-7	4.481064E-3
1.749000E-7	4.477638E-3
1.749500E-7	4.487916E-3
1.750000E-7	4.518749E-3
1.750500E-7	4.529027E-3
1.751000E-7	4.532453E-3
1.751500E-7	4.549582E-3
1.752000E-7	4.566712E-3
1.752500E-7	4.566712E-3
1.753000E-7	4.553008E-3
1.753500E-7	4.487916E-3
1.754000E-7	4.388565E-3
1.754500E-7	4.292640E-3
1.755000E-7	4.227548E-3
1.755500E-7	4.169308E-3
1.756000E-7	4.104216E-3
1.756500E-7	4.045976E-3
1.757000E-7	4.008291E-3
1.757500E-7	3.991162E-3
1.758000E-7	3.980884E-3
1.758500E-7	4.001440E-3
1.759000E-7	4.042550E-3
1.759500E-7	4.073383E-3
1.760000E-7	4.100790E-3
1.760500E-7	4.159031E-3
1.761000E-7	4.251530E-3
1.761500E-7	4.340603E-3
1.762000E-7	4.402269E-3
1.762500E-7	4.481064E-3
1.763000E-7	4.594119E-3
1.763500E-7	4.676340E-3
1.764000E-7	4.724302E-3
1.764500E-7	4.761987E-3
1.765000E-7	4.772265E-3
1.765500E-7	4.755135E-3
1.766000E-7	4.731154E-3
1.766500E-7	4.690044E-3
1.767000E-7	4.635229E-3
1.767500E-7	4.590693E-3
1.768000E-7	4.549582E-3
1.768500E-7	4.508471E-3
1.769000E-7	4.484490E-3
1.769500E-7	4.467361E-3
1.770000E-7	4.436528E-3
1.770500E-7	4.415972E-3
1.771000E-7	4.415972E-3
1.771500E-7	4.391991E-3
1.772000E-7	4.347455E-3
1.772500E-7	4.309770E-3
1.773000E-7	4.268659E-3
1.773500E-7	4.230974E-3
1.774000E-7	4.196715E-3
1.774500E-7	4.186438E-3
1.775000E-7	4.200141E-3
1.775500E-7	4.230974E-3
1.776000E-7	4.265233E-3
1.776500E-7	4.306344E-3
1.777000E-7	4.364584E-3
1.777500E-7	4.439954E-3
1.778000E-7	4.501620E-3
1.778500E-7	4.522175E-3
1.779000E-7	4.508471E-3
1.779500E-7	4.491342E-3
1.780000E-7	4.450231E-3
1.780500E-7	4.371436E-3
1.781000E-7	4.268659E-3
1.781500E-7	4.172734E-3
1.782000E-7	4.093939E-3
1.782500E-7	4.011717E-3
1.783000E-7	3.932922E-3
1.783500E-7	3.908941E-3
1.784000E-7	3.912366E-3
1.784500E-7	3.926070E-3
1.785000E-7	3.984310E-3
1.785500E-7	4.069957E-3
1.786000E-7	4.138475E-3
1.786500E-7	4.206993E-3
1.787000E-7	4.275511E-3
1.787500E-7	4.323473E-3
1.788000E-7	4.364584E-3
1.788500E-7	4.395417E-3
1.789000E-7	4.391991E-3
1.789500E-7	4.350880E-3
1.790000E-7	4.326899E-3
1.790500E-7	4.323473E-3
1.791000E-7	4.299492E-3
1.791500E-7	4.251530E-3
1.792000E-7	4.206993E-3
1.792500E-7	4.183012E-3
1.793000E-7	4.159031E-3
1.793500E-7	4.138475E-3
1.794000E-7	4.159031E-3
1.794500E-7	4.172734E-3
1.795000E-7	4.138475E-3
1.795500E-7	4.124772E-3
1.796000E-7	4.148753E-3
1.796500E-7	4.138475E-3
1.797000E-7	4.100790E-3
1.797500E-7	4.087087E-3
1.798000E-7	4.042550E-3
1.798500E-7	3.943200E-3
1.799000E-7	3.884959E-3
1.799500E-7	3.874682E-3
1.800000E-7	3.819867E-3
1.800500E-7	3.747924E-3
1.801000E-7	3.713665E-3
1.801500E-7	3.675980E-3
1.802000E-7	3.634869E-3
1.802500E-7	3.631444E-3
1.803000E-7	3.634869E-3
1.803500E-7	3.614314E-3
1.804000E-7	3.610888E-3
1.804500E-7	3.638295E-3
1.805000E-7	3.645147E-3
1.805500E-7	3.645147E-3
1.806000E-7	3.665702E-3
1.806500E-7	3.686258E-3
1.807000E-7	3.699961E-3
1.807500E-7	3.751350E-3
1.808000E-7	3.826719E-3
1.808500E-7	3.881533E-3
1.809000E-7	3.963755E-3
1.809500E-7	4.087087E-3
1.810000E-7	4.193289E-3
1.810500E-7	4.258381E-3
1.811000E-7	4.326899E-3
1.811500E-7	4.381713E-3
1.812000E-7	4.378288E-3
1.812500E-7	4.323473E-3
1.813000E-7	4.241252E-3
1.813500E-7	4.114494E-3
1.814000E-7	3.984310E-3
1.814500E-7	3.905515E-3
1.815000E-7	3.836997E-3
1.815500E-7	3.747924E-3
1.816000E-7	3.693110E-3
1.816500E-7	3.713665E-3
1.817000E-7	3.792460E-3
1.817500E-7	3.888385E-3
1.818000E-7	3.987736E-3
1.818500E-7	4.073383E-3
1.819000E-7	4.141901E-3
1.819500E-7	4.193289E-3
1.820000E-7	4.196715E-3
1.820500E-7	4.155605E-3
1.821000E-7	4.100790E-3
1.821500E-7	4.008291E-3
1.822000E-7	3.881533E-3
1.822500E-7	3.768479E-3
1.823000E-7	3.669128E-3
1.823500E-7	3.566352E-3
1.824000E-7	3.504686E-3
1.824500E-7	3.490982E-3
1.825000E-7	3.484130E-3
1.825500E-7	3.490982E-3
1.826000E-7	3.545796E-3
1.826500E-7	3.614314E-3
1.827000E-7	3.662277E-3
1.827500E-7	3.706813E-3
1.828000E-7	3.720517E-3
1.828500E-7	3.710239E-3
1.829000E-7	3.713665E-3
1.829500E-7	3.693110E-3
1.830000E-7	3.645147E-3
1.830500E-7	3.614314E-3
1.831000E-7	3.604036E-3
1.831500E-7	3.597185E-3
1.832000E-7	3.597185E-3
1.832500E-7	3.614314E-3
1.833000E-7	3.648573E-3
1.833500E-7	3.669128E-3
1.834000E-7	3.699961E-3
1.834500E-7	3.765053E-3
1.835000E-7	3.813016E-3
1.835500E-7	3.826719E-3
1.836000E-7	3.836997E-3
1.836500E-7	3.836997E-3
1.837000E-7	3.799312E-3
1.837500E-7	3.758201E-3
1.838000E-7	3.710239E-3
1.838500E-7	3.655425E-3
1.839000E-7	3.610888E-3
1.839500E-7	3.573203E-3
1.840000E-7	3.528667E-3
1.840500E-7	3.490982E-3
1.841000E-7	3.480704E-3
1.841500E-7	3.473853E-3
1.842000E-7	3.470427E-3
1.842500E-7	3.497834E-3
1.843000E-7	3.542370E-3
1.843500E-7	3.576629E-3
1.844000E-7	3.604036E-3
1.844500E-7	3.641721E-3
1.845000E-7	3.682832E-3
1.845500E-7	3.723943E-3
1.846000E-7	3.758201E-3
1.846500E-7	3.782183E-3
1.847000E-7	3.802738E-3
1.847500E-7	3.809590E-3
1.848000E-7	3.799312E-3
1.848500E-7	3.792460E-3
1.849000E-7	3.782183E-3
1.849500E-7	3.765053E-3
1.850000E-7	3.744498E-3
1.850500E-7	3.734220E-3
1.851000E-7	3.727368E-3
1.851500E-7	3.696535E-3
1.852000E-7	3.675980E-3
1.852500E-7	3.675980E-3
1.853000E-7	3.672554E-3
1.853500E-7	3.658851E-3
1.854000E-7	3.655425E-3
1.854500E-7	3.648573E-3
1.855000E-7	3.651999E-3
1.855500E-7	3.669128E-3
1.856000E-7	3.689684E-3
1.856500E-7	3.713665E-3
1.857000E-7	3.758201E-3
1.857500E-7	3.806164E-3
1.858000E-7	3.860978E-3
1.858500E-7	3.919218E-3
1.859000E-7	3.970607E-3
1.859500E-7	4.011717E-3
1.860000E-7	4.045976E-3
1.860500E-7	4.056254E-3
1.861000E-7	4.045976E-3
1.861500E-7	4.008291E-3
1.862000E-7	3.946625E-3
1.862500E-7	3.888385E-3
1.863000E-7	3.840423E-3
1.863500E-7	3.765053E-3
1.864000E-7	3.693110E-3
1.864500E-7	3.634869E-3
1.865000E-7	3.580055E-3
1.865500E-7	3.508111E-3
1.866000E-7	3.460149E-3
1.866500E-7	3.443020E-3
1.867000E-7	3.439594E-3
1.867500E-7	3.415612E-3
1.868000E-7	3.377928E-3
1.868500E-7	3.371076E-3
1.869000E-7	3.391631E-3
1.869500E-7	3.398483E-3
1.870000E-7	3.395057E-3
1.870500E-7	3.398483E-3
1.871000E-7	3.408761E-3
1.871500E-7	3.408761E-3
1.872000E-7	3.422464E-3
1.872500E-7	3.453297E-3
1.873000E-7	3.453297E-3
1.873500E-7	3.453297E-3
1.874000E-7	3.470427E-3
1.874500E-7	3.480704E-3
1.875000E-7	3.470427E-3
1.875500E-7	3.453297E-3
1.876000E-7	3.432742E-3
1.876500E-7	3.408761E-3
1.877000E-7	3.381354E-3
1.877500E-7	3.347095E-3
1.878000E-7	3.316262E-3
1.878500E-7	3.323113E-3
1.879000E-7	3.340243E-3
1.879500E-7	3.343669E-3
1.880000E-7	3.357372E-3
1.880500E-7	3.408761E-3
1.881000E-7	3.460149E-3
1.881500E-7	3.504686E-3
1.882000E-7	3.559500E-3
1.882500E-7	3.607462E-3
1.883000E-7	3.658851E-3
1.883500E-7	3.717091E-3
1.884000E-7	3.741072E-3
1.884500E-7	3.734220E-3
1.885000E-7	3.737646E-3
1.885500E-7	3.734220E-3
1.886000E-7	3.710239E-3
1.886500E-7	3.669128E-3
1.887000E-7	3.617740E-3
1.887500E-7	3.562926E-3
1.888000E-7	3.508111E-3
1.888500E-7	3.443020E-3
1.889000E-7	3.384779E-3
1.889500E-7	3.326539E-3
1.890000E-7	3.271725E-3
1.890500E-7	3.234040E-3
1.891000E-7	3.223763E-3
1.891500E-7	3.210059E-3
1.892000E-7	3.230614E-3
1.892500E-7	3.299132E-3
1.893000E-7	3.353946E-3
1.893500E-7	3.364224E-3
1.894000E-7	3.377928E-3
1.894500E-7	3.398483E-3
1.895000E-7	3.408761E-3
1.895500E-7	3.405335E-3
1.896000E-7	3.395057E-3
1.896500E-7	3.343669E-3
1.897000E-7	3.295706E-3
1.897500E-7	3.288854E-3
1.898000E-7	3.275151E-3
1.898500E-7	3.227188E-3
1.899000E-7	3.213485E-3
1.899500E-7	3.258021E-3
1.900000E-7	3.285429E-3
1.900500E-7	3.285429E-3
1.901000E-7	3.323113E-3
1.901500E-7	3.381354E-3
1.902000E-7	3.425890E-3
1.902500E-7	3.439594E-3
1.903000E-7	3.422464E-3
1.903500E-7	3.398483E-3
1.904000E-7	3.395057E-3
1.904500E-7	3.391631E-3
1.905000E-7	3.381354E-3
1.905500E-7	3.388205E-3
1.906000E-7	3.401909E-3
1.906500E-7	3.412187E-3
1.907000E-7	3.439594E-3
1.907500E-7	3.463575E-3
1.908000E-7	3.456723E-3
1.908500E-7	3.467001E-3
1.909000E-7	3.480704E-3
1.909500E-7	3.453297E-3
1.910000E-7	3.391631E-3
1.910500E-7	3.333391E-3
1.911000E-7	3.251170E-3
1.911500E-7	3.151819E-3
1.912000E-7	3.079875E-3
1.912500E-7	2.994228E-3
1.913000E-7	2.894877E-3
1.913500E-7	2.860618E-3
1.914000E-7	2.867470E-3
1.914500E-7	2.860618E-3
1.915000E-7	2.891451E-3
1.915500E-7	2.997654E-3
1.916000E-7	3.093579E-3
1.916500E-7	3.179226E-3
1.917000E-7	3.309410E-3
1.917500E-7	3.412187E-3
1.918000E-7	3.467001E-3
1.918500E-7	3.538944E-3
1.919000E-7	3.610888E-3
1.919500E-7	3.624592E-3
1.920000E-7	3.614314E-3
1.920500E-7	3.617740E-3
1.921000E-7	3.610888E-3
1.921500E-7	3.600610E-3
1.922000E-7	3.597185E-3
1.922500E-7	3.586907E-3
1.923000E-7	3.600610E-3
1.923500E-7	3.604036E-3
1.924000E-7	3.593759E-3
1.924500E-7	3.607462E-3
1.925000E-7	3.624592E-3
1.925500E-7	3.576629E-3
1.926000E-7	3.514963E-3
1.926500E-7	3.480704E-3
1.927000E-7	3.415612E-3
1.927500E-7	3.319688E-3
1.928000E-7	3.258021E-3
1.928500E-7	3.223763E-3
1.929000E-7	3.192930E-3
1.929500E-7	3.172374E-3
1.930000E-7	3.155245E-3
1.930500E-7	3.131264E-3
1.931000E-7	3.120986E-3
1.931500E-7	3.131264E-3
1.932000E-7	3.141541E-3
1.932500E-7	3.134689E-3
1.933000E-7	3.134689E-3
1.933500E-7	3.155245E-3
1.934000E-7	3.175800E-3
1.934500E-7	3.196355E-3
1.935000E-7	3.234040E-3
1.935500E-7	3.275151E-3
1.936000E-7	3.295706E-3
1.936500E-7	3.312836E-3
1.937000E-7	3.340243E-3
1.937500E-7	3.360798E-3
1.938000E-7	3.357372E-3
1.938500E-7	3.326539E-3
1.939000E-7	3.258021E-3
1.939500E-7	3.206633E-3
1.940000E-7	3.182652E-3
1.940500E-7	3.144967E-3
1.941000E-7	3.086727E-3
1.941500E-7	3.059320E-3
1.942000E-7	3.079875E-3
1.942500E-7	3.120986E-3
1.943000E-7	3.141541E-3
1.943500E-7	3.175800E-3
1.944000E-7	3.247744E-3
1.944500E-7	3.312836E-3
1.945000E-7	3.360798E-3
1.945500E-7	3.395057E-3
1.946000E-7	3.422464E-3
1.946500E-7	3.419038E-3
1.947000E-7	3.395057E-3
1.947500E-7	3.364224E-3
1.948000E-7	3.309410E-3
1.948500E-7	3.237466E-3
1.949000E-7	3.186078E-3
1.949500E-7	3.165522E-3
1.950000E-7	3.144967E-3
1.950500E-7	3.124412E-3
1.951000E-7	3.120986E-3
1.951500E-7	3.107282E-3
1.952000E-7	3.090153E-3
1.952500E-7	3.093579E-3
1.953000E-7	3.103856E-3
1.953500E-7	3.083301E-3
1.954000E-7	3.073023E-3
1.954500E-7	3.086727E-3
1.955000E-7	3.090153E-3
1.955500E-7	3.114134E-3
1.956000E-7	3.141541E-3
1.956500E-7	3.158671E-3
1.957000E-7	3.189504E-3
1.957500E-7	3.251170E-3
1.958000E-7	3.299132E-3
1.958500E-7	3.340243E-3
1.959000E-7	3.398483E-3
1.959500E-7	3.446445E-3
1.960000E-7	3.453297E-3
1.960500E-7	3.415612E-3
1.961000E-7	3.367650E-3
1.961500E-7	3.295706E-3
1.962000E-7	3.206633E-3
1.962500E-7	3.134689E-3
1.963000E-7	3.083301E-3
1.963500E-7	3.045616E-3
1.964000E-7	3.021635E-3
1.964500E-7	3.014783E-3
1.965000E-7	3.038765E-3
1.965500E-7	3.076449E-3
1.966000E-7	3.120986E-3
1.966500E-7	3.172374E-3
1.967000E-7	3.220337E-3
1.967500E-7	3.247744E-3
1.968000E-7	3.268299E-3
1.968500E-7	3.278577E-3
1.969000E-7	3.268299E-3
1.969500E-7	3.230614E-3
1.970000E-7	3.182652E-3
1.970500E-7	3.120986E-3
1.971000E-7	3.038765E-3
1.971500E-7	2.959969E-3
1.972000E-7	2.891451E-3
1.972500E-7	2.853766E-3
1.973000E-7	2.829785E-3
1.973500E-7	2.805804E-3
1.974000E-7	2.774971E-3
1.974500E-7	2.757842E-3
1.975000E-7	2.747564E-3
1.975500E-7	2.737286E-3
1.976000E-7	2.740712E-3
1.976500E-7	2.747564E-3
1.977000E-7	2.771545E-3
1.977500E-7	2.809230E-3
1.978000E-7	2.874322E-3
1.978500E-7	2.939414E-3
1.979000E-7	2.994228E-3
1.979500E-7	3.055894E-3
1.980000E-7	3.131264E-3
1.980500E-7	3.199781E-3
1.981000E-7	3.234040E-3
1.981500E-7	3.261447E-3
1.982000E-7	3.282003E-3
1.982500E-7	3.278577E-3
1.983000E-7	3.268299E-3
1.983500E-7	3.247744E-3
1.984000E-7	3.213485E-3
1.984500E-7	3.172374E-3
1.985000E-7	3.151819E-3
1.985500E-7	3.155245E-3
1.986000E-7	3.179226E-3
1.986500E-7	3.196355E-3
1.987000E-7	3.230614E-3
1.987500E-7	3.285429E-3
1.988000E-7	3.350521E-3
1.988500E-7	3.415612E-3
1.989000E-7	3.453297E-3
1.989500E-7	3.484130E-3
1.990000E-7	3.521815E-3
1.990500E-7	3.566352E-3
1.991000E-7	3.566352E-3
1.991500E-7	3.535519E-3
1.992000E-7	3.511537E-3
1.992500E-7	3.484130E-3
1.993000E-7	3.432742E-3
1.993500E-7	3.388205E-3
1.994000E-7	3.374502E-3
1.994500E-7	3.357372E-3
1.995000E-7	3.347095E-3
1.995500E-7	3.360798E-3
1.996000E-7	3.398483E-3
1.996500E-7	3.436168E-3
1.997000E-7	3.467001E-3
1.997500E-7	3.490982E-3
1.998000E-7	3.490982E-3
1.998500E-7	3.460149E-3
1.999000E-7	3.391631E-3
1.999500E-7	3.316262E-3
2.000000E-7	3.227188E-3
2.000500E-7	3.120986E-3
