Study Name	IronIrradiated_Fe3plus
Sample Name	2022-01-04
Run Name	unirradiated_15
Operator	Angus
Date	1/4/2022
Time	12:51
Sign	FIX
Grating Spacing	06.40um
Channel	3
Number Traces	10000
Files in Batch	1
Batch Number	1
dt	50.000001E-12
time stamp (ms)	12:52:13
	
Time	Amplitude
0.000000E+0	-1.094577E-3
5.000000E-11	-1.111706E-3
1.000000E-10	-1.086012E-3
1.500000E-10	-1.072308E-3
2.000000E-10	-1.031197E-3
2.500000E-10	-9.626794E-4
3.000000E-10	-8.855967E-4
3.500000E-10	-7.948103E-4
4.000000E-10	-7.074499E-4
4.500000E-10	-6.303671E-4
5.000000E-10	-5.704139E-4
5.500000E-10	-5.412937E-4
6.000000E-10	-5.087476E-4
6.500000E-10	-5.258771E-4
7.000000E-10	-5.858304E-4
7.500000E-10	-6.851815E-4
8.000000E-10	-7.879585E-4
8.500000E-10	-8.855967E-4
9.000000E-10	-9.592535E-4
9.500000E-10	-1.012355E-3
1.000000E-9	-1.026059E-3
1.050000E-9	-1.031197E-3
1.100000E-9	-9.849478E-4
1.150000E-9	-9.232816E-4
1.200000E-9	-8.427729E-4
1.250000E-9	-7.451348E-4
1.300000E-9	-6.355060E-4
1.350000E-9	-5.310160E-4
1.400000E-9	-4.607850E-4
1.450000E-9	-4.179613E-4
1.500000E-9	-4.333778E-4
1.550000E-9	-5.018958E-4
1.600000E-9	-5.789786E-4
1.650000E-9	-6.252283E-4
1.700000E-9	-6.320801E-4
1.750000E-9	-6.749038E-4
1.800000E-9	-6.714779E-4
1.850000E-9	-6.200894E-4
1.900000E-9	-5.635621E-4
1.950000E-9	-4.950440E-4
2.000000E-9	-3.751375E-4
2.050000E-9	-2.689346E-4
2.100000E-9	-1.798612E-4
2.150000E-9	-1.336116E-4
2.200000E-9	-1.284727E-4
2.250000E-9	-1.593058E-4
2.300000E-9	-2.243979E-4
2.350000E-9	-3.134713E-4
2.400000E-9	-4.573591E-4
2.450000E-9	-5.498585E-4
2.500000E-9	-6.389319E-4
2.550000E-9	-7.177276E-4
2.600000E-9	-7.691161E-4
2.650000E-9	-8.085139E-4
2.700000E-9	-7.845326E-4
2.750000E-9	-7.828197E-4
2.800000E-9	-7.759679E-4
2.850000E-9	-7.280053E-4
2.900000E-9	-6.920333E-4
2.950000E-9	-6.612002E-4
3.000000E-9	-5.926822E-4
3.050000E-9	-5.190253E-4
3.100000E-9	-4.796275E-4
3.150000E-9	-4.419426E-4
3.200000E-9	-4.231001E-4
3.250000E-9	-3.631469E-4
3.300000E-9	-3.066195E-4
3.350000E-9	-2.603699E-4
3.400000E-9	-1.969907E-4
3.450000E-9	-9.421374E-5
3.500000E-9	-4.282524E-5
3.550000E-9	6.850316E-6
3.600000E-9	5.481292E-5
3.650000E-9	9.249782E-5
3.700000E-9	1.284698E-4
3.750000E-9	1.164791E-4
3.800000E-9	7.194242E-5
3.850000E-9	2.569277E-5
3.900000E-9	-4.453819E-5
3.950000E-9	-1.575929E-4
4.000000E-9	-2.792123E-4
4.050000E-9	-3.939800E-4
4.100000E-9	-5.293030E-4
4.150000E-9	-6.800427E-4
4.200000E-9	-7.982362E-4
4.250000E-9	-9.181427E-4
4.300000E-9	-1.024346E-3
4.350000E-9	-1.137400E-3
4.400000E-9	-1.226474E-3
4.450000E-9	-1.259020E-3
4.500000E-9	-1.279575E-3
4.550000E-9	-1.274436E-3
4.600000E-9	-1.243603E-3
4.650000E-9	-1.159669E-3
4.700000E-9	-1.087725E-3
4.750000E-9	-9.952255E-4
4.800000E-9	-9.147168E-4
4.850000E-9	-7.982362E-4
4.900000E-9	-7.245794E-4
4.950000E-9	-6.440707E-4
5.000000E-9	-6.149506E-4
5.050000E-9	-6.423578E-4
5.100000E-9	-6.697650E-4
5.150000E-9	-7.691161E-4
5.200000E-9	-8.701801E-4
5.250000E-9	-1.027772E-3
5.300000E-9	-1.151104E-3
5.350000E-9	-1.291566E-3
5.400000E-9	-1.411472E-3
5.450000E-9	-1.524527E-3
5.500000E-9	-1.596471E-3
5.550000E-9	-1.641008E-3
5.600000E-9	-1.649572E-3
5.650000E-9	-1.574203E-3
5.700000E-9	-1.479990E-3
5.750000E-9	-1.318973E-3
5.800000E-9	-1.147678E-3
5.850000E-9	-9.678183E-4
5.900000E-9	-8.170787E-4
5.950000E-9	-6.731909E-4
6.000000E-9	-5.549973E-4
6.050000E-9	-4.624980E-4
6.100000E-9	-3.905541E-4
6.150000E-9	-3.717116E-4
6.200000E-9	-3.751375E-4
6.250000E-9	-4.402296E-4
6.300000E-9	-4.830534E-4
6.350000E-9	-4.813404E-4
6.400000E-9	-4.590721E-4
6.450000E-9	-3.631469E-4
6.500000E-9	-1.610188E-4
6.550000E-9	1.849971E-4
6.600000E-9	7.074469E-4
6.650000E-9	1.467997E-3
6.700000E-9	2.526600E-3
6.750000E-9	3.972330E-3
6.800000E-9	5.837732E-3
6.850000E-9	8.237575E-3
6.900000E-9	1.111533E-2
6.950000E-9	1.449669E-2
7.000000E-9	1.832171E-2
7.050000E-9	2.250645E-2
7.100000E-9	2.691730E-2
7.150000E-9	3.143777E-2
7.200000E-9	3.587774E-2
7.250000E-9	4.012243E-2
7.300000E-9	4.405194E-2
7.350000E-9	4.755320E-2
7.400000E-9	5.057142E-2
7.450000E-9	5.303636E-2
7.500000E-9	5.501310E-2
7.550000E-9	5.648281E-2
7.600000E-9	5.756026E-2
7.650000E-9	5.836192E-2
7.700000E-9	5.902483E-2
7.750000E-9	5.967747E-2
7.800000E-9	6.038491E-2
7.850000E-9	6.113519E-2
7.900000E-9	6.195055E-2
7.950000E-9	6.287726E-2
8.000000E-9	6.386563E-2
8.050000E-9	6.486942E-2
8.100000E-9	6.581839E-2
8.150000E-9	6.668343E-2
8.200000E-9	6.732921E-2
8.250000E-9	6.770435E-2
8.300000E-9	6.777801E-2
8.350000E-9	6.753477E-2
8.400000E-9	6.684787E-2
8.450000E-9	6.590061E-2
8.500000E-9	6.461590E-2
8.550000E-9	6.305198E-2
8.600000E-9	6.126023E-2
8.650000E-9	5.930062E-2
8.700000E-9	5.717142E-2
8.750000E-9	5.497542E-2
8.800000E-9	5.274173E-2
8.850000E-9	5.056115E-2
8.900000E-9	4.841996E-2
8.950000E-9	4.634729E-2
9.000000E-9	4.448874E-2
9.050000E-9	4.290940E-2
9.100000E-9	4.156816E-2
9.150000E-9	4.049071E-2
9.200000E-9	3.972674E-2
9.250000E-9	3.928137E-2
9.300000E-9	3.909294E-2
9.350000E-9	3.921285E-2
9.400000E-9	3.962225E-2
9.450000E-9	4.030743E-2
9.500000E-9	4.121358E-2
9.550000E-9	4.228246E-2
9.600000E-9	4.345925E-2
9.650000E-9	4.473369E-2
9.700000E-9	4.607664E-2
9.750000E-9	4.746756E-2
9.800000E-9	4.886532E-2
9.850000E-9	5.021342E-2
9.900000E-9	5.149813E-2
9.950000E-9	5.272460E-2
1.000000E-8	5.386371E-2
1.005000E-8	5.488977E-2
1.010000E-8	5.582847E-2
1.015000E-8	5.669865E-2
1.020000E-8	5.747119E-2
1.025000E-8	5.813410E-2
1.030000E-8	5.869423E-2
1.035000E-8	5.910534E-2
1.040000E-8	5.933145E-2
1.045000E-8	5.943251E-2
1.050000E-8	5.933145E-2
1.055000E-8	5.900085E-2
1.060000E-8	5.851780E-2
1.065000E-8	5.776924E-2
1.070000E-8	5.676031E-2
1.075000E-8	5.556639E-2
1.080000E-8	5.422515E-2
1.085000E-8	5.271090E-2
1.090000E-8	5.106647E-2
1.095000E-8	4.935352E-2
1.100000E-8	4.761658E-2
1.105000E-8	4.577002E-2
1.110000E-8	4.388578E-2
1.115000E-8	4.210431E-2
1.120000E-8	4.041363E-2
1.125000E-8	3.880517E-2
1.130000E-8	3.740398E-2
1.135000E-8	3.620834E-2
1.140000E-8	3.525080E-2
1.145000E-8	3.460330E-2
1.150000E-8	3.425386E-2
1.155000E-8	3.413909E-2
1.160000E-8	3.431724E-2
1.165000E-8	3.474205E-2
1.170000E-8	3.537070E-2
1.175000E-8	3.619121E-2
1.180000E-8	3.717787E-2
1.185000E-8	3.835980E-2
1.190000E-8	3.972502E-2
1.195000E-8	4.114677E-2
1.200000E-8	4.264732E-2
1.205000E-8	4.423522E-2
1.210000E-8	4.581627E-2
1.215000E-8	4.735450E-2
1.220000E-8	4.890130E-2
1.225000E-8	5.037615E-2
1.230000E-8	5.169341E-2
1.235000E-8	5.293358E-2
1.240000E-8	5.400589E-2
1.245000E-8	5.483667E-2
1.250000E-8	5.546190E-2
1.255000E-8	5.584731E-2
1.260000E-8	5.593981E-2
1.265000E-8	5.581990E-2
1.270000E-8	5.547560E-2
1.275000E-8	5.491033E-2
1.280000E-8	5.411723E-2
1.285000E-8	5.313571E-2
1.290000E-8	5.197262E-2
1.295000E-8	5.069818E-2
1.300000E-8	4.928500E-2
1.305000E-8	4.776047E-2
1.310000E-8	4.614173E-2
1.315000E-8	4.441679E-2
1.320000E-8	4.263875E-2
1.325000E-8	4.085386E-2
1.330000E-8	3.908438E-2
1.335000E-8	3.730976E-2
1.340000E-8	3.561566E-2
1.345000E-8	3.405002E-2
1.350000E-8	3.264711E-2
1.355000E-8	3.145833E-2
1.360000E-8	3.051963E-2
1.365000E-8	2.982760E-2
1.370000E-8	2.941649E-2
1.375000E-8	2.928288E-2
1.380000E-8	2.943191E-2
1.385000E-8	2.986357E-2
1.390000E-8	3.060185E-2
1.395000E-8	3.159022E-2
1.400000E-8	3.277901E-2
1.405000E-8	3.416479E-2
1.410000E-8	3.571672E-2
1.415000E-8	3.738685E-2
1.420000E-8	3.911693E-2
1.425000E-8	4.087099E-2
1.430000E-8	4.261477E-2
1.435000E-8	4.425235E-2
1.440000E-8	4.577174E-2
1.445000E-8	4.721061E-2
1.450000E-8	4.845079E-2
1.455000E-8	4.956421E-2
1.460000E-8	5.049605E-2
1.465000E-8	5.126003E-2
1.470000E-8	5.178933E-2
1.475000E-8	5.213021E-2
1.480000E-8	5.225183E-2
1.485000E-8	5.213021E-2
1.490000E-8	5.177734E-2
1.495000E-8	5.122234E-2
1.500000E-8	5.042240E-2
1.505000E-8	4.942889E-2
1.510000E-8	4.823667E-2
1.515000E-8	4.683034E-2
1.520000E-8	4.524072E-2
1.525000E-8	4.353976E-2
1.530000E-8	4.174288E-2
1.535000E-8	3.993229E-2
1.540000E-8	3.810286E-2
1.545000E-8	3.630769E-2
1.550000E-8	3.455020E-2
1.555000E-8	3.292461E-2
1.560000E-8	3.144291E-2
1.565000E-8	3.015135E-2
1.570000E-8	2.901909E-2
1.575000E-8	2.807868E-2
1.580000E-8	2.735410E-2
1.585000E-8	2.685734E-2
1.590000E-8	2.656100E-2
1.595000E-8	2.650619E-2
1.600000E-8	2.674429E-2
1.605000E-8	2.721877E-2
1.610000E-8	2.790909E-2
1.615000E-8	2.881011E-2
1.620000E-8	2.993551E-2
1.625000E-8	3.119453E-2
1.630000E-8	3.260429E-2
1.635000E-8	3.411340E-2
1.640000E-8	3.572528E-2
1.645000E-8	3.735601E-2
1.650000E-8	3.894734E-2
1.655000E-8	4.048900E-2
1.660000E-8	4.195700E-2
1.665000E-8	4.331708E-2
1.670000E-8	4.450758E-2
1.675000E-8	4.560215E-2
1.680000E-8	4.647576E-2
1.685000E-8	4.716265E-2
1.690000E-8	4.770566E-2
1.695000E-8	4.801741E-2
1.700000E-8	4.810306E-2
1.705000E-8	4.802941E-2
1.710000E-8	4.773820E-2
1.715000E-8	4.719520E-2
1.720000E-8	4.652372E-2
1.725000E-8	4.565868E-2
1.730000E-8	4.455554E-2
1.735000E-8	4.330851E-2
1.740000E-8	4.188848E-2
1.745000E-8	4.032798E-2
1.750000E-8	3.865957E-2
1.755000E-8	3.696375E-2
1.760000E-8	3.516344E-2
1.765000E-8	3.336655E-2
1.770000E-8	3.166731E-2
1.775000E-8	3.003829E-2
1.780000E-8	2.858742E-2
1.785000E-8	2.729757E-2
1.790000E-8	2.622698E-2
1.795000E-8	2.538592E-2
1.800000E-8	2.474699E-2
1.805000E-8	2.437185E-2
1.810000E-8	2.423139E-2
1.815000E-8	2.432389E-2
1.820000E-8	2.463393E-2
1.825000E-8	2.511699E-2
1.830000E-8	2.577647E-2
1.835000E-8	2.663637E-2
1.840000E-8	2.765558E-2
1.845000E-8	2.877756E-2
1.850000E-8	3.002973E-2
1.855000E-8	3.140009E-2
1.860000E-8	3.282526E-2
1.865000E-8	3.429840E-2
1.870000E-8	3.581265E-2
1.875000E-8	3.729092E-2
1.880000E-8	3.869897E-2
1.885000E-8	4.008132E-2
1.890000E-8	4.135918E-2
1.895000E-8	4.249486E-2
1.900000E-8	4.346268E-2
1.905000E-8	4.429689E-2
1.910000E-8	4.492211E-2
1.915000E-8	4.531952E-2
1.920000E-8	4.552336E-2
1.925000E-8	4.550109E-2
1.930000E-8	4.522531E-2
1.935000E-8	4.469087E-2
1.940000E-8	4.389777E-2
1.945000E-8	4.290597E-2
1.950000E-8	4.172404E-2
1.955000E-8	4.034511E-2
1.960000E-8	3.885313E-2
1.965000E-8	3.723097E-2
1.970000E-8	3.558996E-2
1.975000E-8	3.392497E-2
1.980000E-8	3.224971E-2
1.985000E-8	3.066866E-2
1.990000E-8	2.918695E-2
1.995000E-8	2.775493E-2
2.000000E-8	2.647535E-2
2.005000E-8	2.532425E-2
2.010000E-8	2.432732E-2
2.015000E-8	2.349482E-2
2.020000E-8	2.281135E-2
2.025000E-8	2.234029E-2
2.030000E-8	2.204567E-2
2.035000E-8	2.195488E-2
2.040000E-8	2.213303E-2
2.045000E-8	2.253557E-2
2.050000E-8	2.313853E-2
2.055000E-8	2.394875E-2
2.060000E-8	2.497481E-2
2.065000E-8	2.613962E-2
2.070000E-8	2.743118E-2
2.075000E-8	2.883751E-2
2.080000E-8	3.031579E-2
2.085000E-8	3.182661E-2
2.090000E-8	3.334428E-2
2.095000E-8	3.483112E-2
2.100000E-8	3.623061E-2
2.105000E-8	3.753930E-2
2.110000E-8	3.870753E-2
2.115000E-8	3.974900E-2
2.120000E-8	4.064316E-2
2.125000E-8	4.136774E-2
2.130000E-8	4.191075E-2
2.135000E-8	4.226019E-2
2.140000E-8	4.236811E-2
2.145000E-8	4.228246E-2
2.150000E-8	4.195528E-2
2.155000E-8	4.140371E-2
2.160000E-8	4.065173E-2
2.165000E-8	3.967363E-2
2.170000E-8	3.851054E-2
2.175000E-8	3.712305E-2
2.180000E-8	3.559339E-2
2.185000E-8	3.397808E-2
2.190000E-8	3.230966E-2
2.195000E-8	3.057273E-2
2.200000E-8	2.890260E-2
2.205000E-8	2.729928E-2
2.210000E-8	2.576791E-2
2.215000E-8	2.433245E-2
2.220000E-8	2.300663E-2
2.225000E-8	2.184696E-2
2.230000E-8	2.088771E-2
2.235000E-8	2.010832E-2
2.240000E-8	1.952078E-2
2.245000E-8	1.916277E-2
2.250000E-8	1.898291E-2
2.255000E-8	1.902916E-2
2.260000E-8	1.932379E-2
2.265000E-8	1.981883E-2
2.270000E-8	2.051600E-2
2.275000E-8	2.142386E-2
2.280000E-8	2.250645E-2
2.285000E-8	2.377917E-2
2.290000E-8	2.514782E-2
2.295000E-8	2.660554E-2
2.300000E-8	2.813178E-2
2.305000E-8	2.962718E-2
2.310000E-8	3.104893E-2
2.315000E-8	3.244499E-2
2.320000E-8	3.379822E-2
2.325000E-8	3.503154E-2
2.330000E-8	3.615181E-2
2.335000E-8	3.714189E-2
2.340000E-8	3.797268E-2
2.345000E-8	3.864758E-2
2.350000E-8	3.914262E-2
2.355000E-8	3.942526E-2
2.360000E-8	3.952290E-2
2.365000E-8	3.936530E-2
2.370000E-8	3.903813E-2
2.375000E-8	3.845230E-2
2.380000E-8	3.766948E-2
2.385000E-8	3.665199E-2
2.390000E-8	3.551802E-2
2.395000E-8	3.420590E-2
2.400000E-8	3.280128E-2
2.405000E-8	3.134698E-2
2.410000E-8	2.983102E-2
2.415000E-8	2.828423E-2
2.420000E-8	2.676484E-2
2.425000E-8	2.527286E-2
2.430000E-8	2.383399E-2
2.435000E-8	2.252700E-2
2.440000E-8	2.128169E-2
2.445000E-8	2.020424E-2
2.450000E-8	1.930837E-2
2.455000E-8	1.856324E-2
2.460000E-8	1.800653E-2
2.465000E-8	1.766908E-2
2.470000E-8	1.758514E-2
2.475000E-8	1.769135E-2
2.480000E-8	1.802195E-2
2.485000E-8	1.859407E-2
2.490000E-8	1.932893E-2
2.495000E-8	2.027105E-2
2.500000E-8	2.133308E-2
2.505000E-8	2.253214E-2
2.510000E-8	2.384084E-2
2.515000E-8	2.523689E-2
2.520000E-8	2.666720E-2
2.525000E-8	2.807182E-2
2.530000E-8	2.946445E-2
2.535000E-8	3.084166E-2
2.540000E-8	3.210753E-2
2.545000E-8	3.326891E-2
2.550000E-8	3.430696E-2
2.555000E-8	3.514288E-2
2.560000E-8	3.578866E-2
2.565000E-8	3.625287E-2
2.570000E-8	3.654750E-2
2.575000E-8	3.662801E-2
2.580000E-8	3.656977E-2
2.585000E-8	3.633681E-2
2.590000E-8	3.596167E-2
2.595000E-8	3.539811E-2
2.600000E-8	3.467182E-2
2.605000E-8	3.383247E-2
2.610000E-8	3.284753E-2
2.615000E-8	3.174610E-2
2.620000E-8	3.055389E-2
2.625000E-8	2.925719E-2
2.630000E-8	2.787483E-2
2.635000E-8	2.649248E-2
2.640000E-8	2.508444E-2
2.645000E-8	2.370209E-2
2.650000E-8	2.233858E-2
2.655000E-8	2.106072E-2
2.660000E-8	1.986337E-2
2.665000E-8	1.879449E-2
2.670000E-8	1.786264E-2
2.675000E-8	1.705242E-2
2.680000E-8	1.647001E-2
2.685000E-8	1.605891E-2
2.690000E-8	1.586020E-2
2.695000E-8	1.586705E-2
2.700000E-8	1.607090E-2
2.705000E-8	1.645802E-2
2.710000E-8	1.706783E-2
2.715000E-8	1.784380E-2
2.720000E-8	1.876879E-2
2.725000E-8	1.986508E-2
2.730000E-8	2.107100E-2
2.735000E-8	2.243451E-2
2.740000E-8	2.385797E-2
2.745000E-8	2.534652E-2
2.750000E-8	2.683165E-2
2.755000E-8	2.826881E-2
2.760000E-8	2.961519E-2
2.765000E-8	3.084338E-2
2.770000E-8	3.191911E-2
2.775000E-8	3.280299E-2
2.780000E-8	3.358067E-2
2.785000E-8	3.415108E-2
2.790000E-8	3.453136E-2
2.795000E-8	3.472492E-2
2.800000E-8	3.475062E-2
2.805000E-8	3.458789E-2
2.810000E-8	3.420590E-2
2.815000E-8	3.363377E-2
2.820000E-8	3.289378E-2
2.825000E-8	3.199791E-2
2.830000E-8	3.091190E-2
2.835000E-8	2.972653E-2
2.840000E-8	2.842983E-2
2.845000E-8	2.705776E-2
2.850000E-8	2.563087E-2
2.855000E-8	2.420570E-2
2.860000E-8	2.281992E-2
2.865000E-8	2.150780E-2
2.870000E-8	2.025906E-2
2.875000E-8	1.908569E-2
2.880000E-8	1.806477E-2
2.885000E-8	1.718260E-2
2.890000E-8	1.647173E-2
2.895000E-8	1.590988E-2
2.900000E-8	1.551247E-2
2.905000E-8	1.527609E-2
2.910000E-8	1.520072E-2
2.915000E-8	1.530007E-2
2.920000E-8	1.558784E-2
2.925000E-8	1.602293E-2
2.930000E-8	1.661904E-2
2.935000E-8	1.732306E-2
2.940000E-8	1.819324E-2
2.945000E-8	1.916106E-2
2.950000E-8	2.025221E-2
2.955000E-8	2.143243E-2
2.960000E-8	2.268973E-2
2.965000E-8	2.396931E-2
2.970000E-8	2.532254E-2
2.975000E-8	2.661239E-2
2.980000E-8	2.785942E-2
2.985000E-8	2.907561E-2
2.990000E-8	3.019074E-2
2.995000E-8	3.116370E-2
3.000000E-8	3.199277E-2
3.005000E-8	3.263170E-2
3.010000E-8	3.307364E-2
3.015000E-8	3.333743E-2
3.020000E-8	3.336655E-2
3.025000E-8	3.319183E-2
3.030000E-8	3.283040E-2
3.035000E-8	3.223429E-2
3.040000E-8	3.147546E-2
3.045000E-8	3.057273E-2
3.050000E-8	2.952783E-2
3.055000E-8	2.838872E-2
3.060000E-8	2.714169E-2
3.065000E-8	2.583985E-2
3.070000E-8	2.454315E-2
3.075000E-8	2.321561E-2
3.080000E-8	2.188636E-2
3.085000E-8	2.060165E-2
3.090000E-8	1.939059E-2
3.095000E-8	1.825662E-2
3.100000E-8	1.721857E-2
3.105000E-8	1.630728E-2
3.110000E-8	1.556044E-2
3.115000E-8	1.494206E-2
3.120000E-8	1.446244E-2
3.125000E-8	1.418836E-2
3.130000E-8	1.406503E-2
3.135000E-8	1.416952E-2
3.140000E-8	1.445216E-2
3.145000E-8	1.489410E-2
3.150000E-8	1.549877E-2
3.155000E-8	1.626275E-2
3.160000E-8	1.715862E-2
3.165000E-8	1.816926E-2
3.170000E-8	1.927240E-2
3.175000E-8	2.042179E-2
3.180000E-8	2.157632E-2
3.185000E-8	2.270858E-2
3.190000E-8	2.384084E-2
3.195000E-8	2.493370E-2
3.200000E-8	2.596832E-2
3.205000E-8	2.688818E-2
3.210000E-8	2.770011E-2
3.215000E-8	2.841270E-2
3.220000E-8	2.902765E-2
3.225000E-8	2.953811E-2
3.230000E-8	2.992524E-2
3.235000E-8	3.018218E-2
3.240000E-8	3.026440E-2
3.245000E-8	3.021815E-2
3.250000E-8	2.997320E-2
3.255000E-8	2.954667E-2
3.260000E-8	2.890603E-2
3.265000E-8	2.811636E-2
3.270000E-8	2.714683E-2
3.275000E-8	2.607452E-2
3.280000E-8	2.489088E-2
3.285000E-8	2.363014E-2
3.290000E-8	2.234201E-2
3.295000E-8	2.102817E-2
3.300000E-8	1.975888E-2
3.305000E-8	1.853069E-2
3.310000E-8	1.738130E-2
3.315000E-8	1.631585E-2
3.320000E-8	1.536345E-2
3.325000E-8	1.451554E-2
3.330000E-8	1.379096E-2
3.335000E-8	1.320513E-2
3.340000E-8	1.280944E-2
3.345000E-8	1.254564E-2
3.350000E-8	1.248227E-2
3.355000E-8	1.258504E-2
3.360000E-8	1.285740E-2
3.365000E-8	1.330791E-2
3.370000E-8	1.390915E-2
3.375000E-8	1.465600E-2
3.380000E-8	1.553132E-2
3.385000E-8	1.654196E-2
3.390000E-8	1.765195E-2
3.395000E-8	1.882875E-2
3.400000E-8	2.005008E-2
3.405000E-8	2.126113E-2
3.410000E-8	2.248761E-2
3.415000E-8	2.368153E-2
3.420000E-8	2.481208E-2
3.425000E-8	2.587925E-2
3.430000E-8	2.687105E-2
3.435000E-8	2.772410E-2
3.440000E-8	2.841613E-2
3.445000E-8	2.895742E-2
3.450000E-8	2.929830E-2
3.455000E-8	2.947130E-2
3.460000E-8	2.946959E-2
3.465000E-8	2.926918E-2
3.470000E-8	2.889404E-2
3.475000E-8	2.835275E-2
3.480000E-8	2.764873E-2
3.485000E-8	2.685906E-2
3.490000E-8	2.593749E-2
3.495000E-8	2.490972E-2
3.500000E-8	2.383912E-2
3.505000E-8	2.272399E-2
3.510000E-8	2.157803E-2
3.515000E-8	2.036184E-2
3.520000E-8	1.920731E-2
3.525000E-8	1.809389E-2
3.530000E-8	1.705070E-2
3.535000E-8	1.607090E-2
3.540000E-8	1.519729E-2
3.545000E-8	1.445387E-2
3.550000E-8	1.381323E-2
3.555000E-8	1.330106E-2
3.560000E-8	1.297217E-2
3.565000E-8	1.276662E-2
3.570000E-8	1.269467E-2
3.575000E-8	1.276490E-2
3.580000E-8	1.297388E-2
3.585000E-8	1.330106E-2
3.590000E-8	1.382522E-2
3.595000E-8	1.445901E-2
3.600000E-8	1.519729E-2
3.605000E-8	1.609145E-2
3.610000E-8	1.705070E-2
3.615000E-8	1.808533E-2
3.620000E-8	1.919018E-2
3.625000E-8	2.031045E-2
3.630000E-8	2.144099E-2
3.635000E-8	2.256469E-2
3.640000E-8	2.364556E-2
3.645000E-8	2.460139E-2
3.650000E-8	2.544416E-2
3.655000E-8	2.612934E-2
3.660000E-8	2.666892E-2
3.665000E-8	2.705604E-2
3.670000E-8	2.728044E-2
3.675000E-8	2.735238E-2
3.680000E-8	2.720850E-2
3.685000E-8	2.692072E-2
3.690000E-8	2.648906E-2
3.695000E-8	2.592378E-2
3.700000E-8	2.523004E-2
3.705000E-8	2.444037E-2
3.710000E-8	2.361987E-2
3.715000E-8	2.273598E-2
3.720000E-8	2.179215E-2
3.725000E-8	2.080206E-2
3.730000E-8	1.979828E-2
3.735000E-8	1.879277E-2
3.740000E-8	1.776843E-2
3.745000E-8	1.675779E-2
3.750000E-8	1.577284E-2
3.755000E-8	1.484442E-2
3.760000E-8	1.395540E-2
3.765000E-8	1.321541E-2
3.770000E-8	1.259189E-2
3.775000E-8	1.208657E-2
3.780000E-8	1.175769E-2
3.785000E-8	1.157611E-2
3.790000E-8	1.155042E-2
3.795000E-8	1.164292E-2
3.800000E-8	1.191870E-2
3.805000E-8	1.232810E-2
3.810000E-8	1.284370E-2
3.815000E-8	1.347749E-2
3.820000E-8	1.422091E-2
3.825000E-8	1.505169E-2
3.830000E-8	1.596298E-2
3.835000E-8	1.691367E-2
3.840000E-8	1.792259E-2
3.845000E-8	1.898462E-2
3.850000E-8	2.003466E-2
3.855000E-8	2.106072E-2
3.860000E-8	2.203710E-2
3.865000E-8	2.297237E-2
3.870000E-8	2.378774E-2
3.875000E-8	2.447120E-2
3.880000E-8	2.498509E-2
3.885000E-8	2.535680E-2
3.890000E-8	2.555036E-2
3.895000E-8	2.559832E-2
3.900000E-8	2.546471E-2
3.905000E-8	2.519235E-2
3.910000E-8	2.475727E-2
3.915000E-8	2.420912E-2
3.920000E-8	2.355820E-2
3.925000E-8	2.282677E-2
3.930000E-8	2.200627E-2
3.935000E-8	2.113095E-2
3.940000E-8	2.021624E-2
3.945000E-8	1.926726E-2
3.950000E-8	1.830801E-2
3.955000E-8	1.732478E-2
3.960000E-8	1.635011E-2
3.965000E-8	1.536002E-2
3.970000E-8	1.445730E-2
3.975000E-8	1.353059E-2
3.980000E-8	1.269296E-2
3.985000E-8	1.196495E-2
3.990000E-8	1.132945E-2
3.995000E-8	1.082756E-2
4.000000E-8	1.049182E-2
4.005000E-8	1.029997E-2
4.010000E-8	1.028284E-2
4.015000E-8	1.040446E-2
4.020000E-8	1.067853E-2
4.025000E-8	1.106908E-2
4.030000E-8	1.158297E-2
4.035000E-8	1.219449E-2
4.040000E-8	1.291393E-2
4.045000E-8	1.376869E-2
4.050000E-8	1.468683E-2
4.055000E-8	1.564266E-2
4.060000E-8	1.664302E-2
4.065000E-8	1.769649E-2
4.070000E-8	1.873796E-2
4.075000E-8	1.978457E-2
4.080000E-8	2.075753E-2
4.085000E-8	2.166025E-2
4.090000E-8	2.249960E-2
4.095000E-8	2.316765E-2
4.100000E-8	2.369695E-2
4.105000E-8	2.404639E-2
4.110000E-8	2.423482E-2
4.115000E-8	2.422625E-2
4.120000E-8	2.402584E-2
4.125000E-8	2.366098E-2
4.130000E-8	2.318478E-2
4.135000E-8	2.255955E-2
4.140000E-8	2.187437E-2
4.145000E-8	2.115836E-2
4.150000E-8	2.039952E-2
4.155000E-8	1.961499E-2
4.160000E-8	1.882532E-2
4.165000E-8	1.800996E-2
4.170000E-8	1.717061E-2
4.175000E-8	1.624733E-2
4.180000E-8	1.537201E-2
4.185000E-8	1.447614E-2
4.190000E-8	1.356314E-2
4.195000E-8	1.269981E-2
4.200000E-8	1.187417E-2
4.205000E-8	1.111704E-2
4.210000E-8	1.045756E-2
4.215000E-8	9.940248E-3
4.220000E-8	9.537704E-3
4.225000E-8	9.321873E-3
4.230000E-8	9.313308E-3
4.235000E-8	9.477751E-3
4.240000E-8	9.794647E-3
4.245000E-8	1.028626E-2
4.250000E-8	1.087381E-2
4.255000E-8	1.158639E-2
4.260000E-8	1.238291E-2
4.265000E-8	1.324624E-2
4.270000E-8	1.410100E-2
4.275000E-8	1.498489E-2
4.280000E-8	1.586877E-2
4.285000E-8	1.670983E-2
4.290000E-8	1.754917E-2
4.295000E-8	1.831829E-2
4.300000E-8	1.904972E-2
4.305000E-8	1.969207E-2
4.310000E-8	2.029332E-2
4.315000E-8	2.080720E-2
4.320000E-8	2.122516E-2
4.325000E-8	2.155405E-2
4.330000E-8	2.174933E-2
4.335000E-8	2.181956E-2
4.340000E-8	2.177331E-2
4.345000E-8	2.157632E-2
4.350000E-8	2.124914E-2
4.355000E-8	2.078836E-2
4.360000E-8	2.024193E-2
4.365000E-8	1.960642E-2
4.370000E-8	1.889384E-2
4.375000E-8	1.809732E-2
4.380000E-8	1.733163E-2
4.385000E-8	1.654538E-2
4.390000E-8	1.578655E-2
4.395000E-8	1.505169E-2
4.400000E-8	1.435281E-2
4.405000E-8	1.368647E-2
4.410000E-8	1.307837E-2
4.415000E-8	1.250111E-2
4.420000E-8	1.198722E-2
4.425000E-8	1.156412E-2
4.430000E-8	1.120612E-2
4.435000E-8	1.091663E-2
4.440000E-8	1.069223E-2
4.445000E-8	1.055520E-2
4.450000E-8	1.052436E-2
4.455000E-8	1.059973E-2
4.460000E-8	1.080357E-2
4.465000E-8	1.105367E-2
4.470000E-8	1.143051E-2
4.475000E-8	1.187417E-2
4.480000E-8	1.240518E-2
4.485000E-8	1.299444E-2
4.490000E-8	1.367277E-2
4.495000E-8	1.438021E-2
4.500000E-8	1.507053E-2
4.505000E-8	1.575743E-2
4.510000E-8	1.642034E-2
4.515000E-8	1.702843E-2
4.520000E-8	1.761084E-2
4.525000E-8	1.814014E-2
4.530000E-8	1.861120E-2
4.535000E-8	1.898291E-2
4.540000E-8	1.928782E-2
4.545000E-8	1.952592E-2
4.550000E-8	1.966638E-2
4.555000E-8	1.972291E-2
4.560000E-8	1.970406E-2
4.565000E-8	1.957902E-2
4.570000E-8	1.938374E-2
4.575000E-8	1.909768E-2
4.580000E-8	1.870199E-2
4.585000E-8	1.820352E-2
4.590000E-8	1.765195E-2
4.595000E-8	1.702330E-2
4.600000E-8	1.635696E-2
4.605000E-8	1.563581E-2
4.610000E-8	1.492493E-2
4.615000E-8	1.419350E-2
4.620000E-8	1.346036E-2
4.625000E-8	1.272379E-2
4.630000E-8	1.203005E-2
4.635000E-8	1.136714E-2
4.640000E-8	1.076760E-2
4.645000E-8	1.022974E-2
4.650000E-8	9.787795E-3
4.655000E-8	9.458909E-3
4.660000E-8	9.258494E-3
4.665000E-8	9.195114E-3
4.670000E-8	9.243077E-3
4.675000E-8	9.438353E-3
4.680000E-8	9.772379E-3
4.685000E-8	1.022288E-2
4.690000E-8	1.073506E-2
4.695000E-8	1.132260E-2
4.700000E-8	1.197352E-2
4.705000E-8	1.260560E-2
4.710000E-8	1.321198E-2
4.715000E-8	1.376355E-2
4.720000E-8	1.432883E-2
4.725000E-8	1.488725E-2
4.730000E-8	1.540798E-2
4.735000E-8	1.591502E-2
4.740000E-8	1.645288E-2
4.745000E-8	1.694107E-2
4.750000E-8	1.742584E-2
4.755000E-8	1.785922E-2
4.760000E-8	1.829431E-2
4.765000E-8	1.866430E-2
4.770000E-8	1.897777E-2
4.775000E-8	1.919189E-2
4.780000E-8	1.930666E-2
4.785000E-8	1.926383E-2
4.790000E-8	1.909083E-2
4.795000E-8	1.875338E-2
4.800000E-8	1.827375E-2
4.805000E-8	1.766737E-2
4.810000E-8	1.693765E-2
4.815000E-8	1.611715E-2
4.820000E-8	1.529836E-2
4.825000E-8	1.448642E-2
4.830000E-8	1.370531E-2
4.835000E-8	1.292935E-2
4.840000E-8	1.220819E-2
4.845000E-8	1.157783E-2
4.850000E-8	1.097830E-2
4.855000E-8	1.047126E-2
4.860000E-8	1.000534E-2
4.865000E-8	9.652472E-3
4.870000E-8	9.386965E-3
4.875000E-8	9.201966E-3
4.880000E-8	9.071782E-3
4.885000E-8	9.082060E-3
4.890000E-8	9.186550E-3
4.895000E-8	9.354419E-3
4.900000E-8	9.630204E-3
4.905000E-8	9.953951E-3
4.910000E-8	1.033594E-2
4.915000E-8	1.076418E-2
4.920000E-8	1.124209E-2
4.925000E-8	1.175084E-2
4.930000E-8	1.226986E-2
4.935000E-8	1.282657E-2
4.940000E-8	1.337814E-2
4.945000E-8	1.395712E-2
4.950000E-8	1.452068E-2
4.955000E-8	1.510651E-2
4.960000E-8	1.565122E-2
4.965000E-8	1.619937E-2
4.970000E-8	1.672867E-2
4.975000E-8	1.718431E-2
4.980000E-8	1.760227E-2
4.985000E-8	1.789861E-2
4.990000E-8	1.806306E-2
4.995000E-8	1.810417E-2
5.000000E-8	1.797912E-2
5.005000E-8	1.773588E-2
5.010000E-8	1.738130E-2
5.015000E-8	1.699589E-2
5.020000E-8	1.653682E-2
5.025000E-8	1.604349E-2
5.030000E-8	1.551590E-2
5.035000E-8	1.501229E-2
5.040000E-8	1.445045E-2
5.045000E-8	1.392628E-2
5.050000E-8	1.338156E-2
5.055000E-8	1.284884E-2
5.060000E-8	1.233324E-2
5.065000E-8	1.184505E-2
5.070000E-8	1.136028E-2
5.075000E-8	1.083612E-2
5.080000E-8	1.033423E-2
5.085000E-8	9.933396E-3
5.090000E-8	9.597658E-3
5.095000E-8	9.323586E-3
5.100000E-8	9.208818E-3
5.105000E-8	9.217383E-3
5.110000E-8	9.315021E-3
5.115000E-8	9.476038E-3
5.120000E-8	9.719277E-3
5.125000E-8	1.004645E-2
5.130000E-8	1.043186E-2
5.135000E-8	1.082756E-2
5.140000E-8	1.129862E-2
5.145000E-8	1.180051E-2
5.150000E-8	1.230583E-2
5.155000E-8	1.282657E-2
5.160000E-8	1.335758E-2
5.165000E-8	1.388346E-2
5.170000E-8	1.436822E-2
5.175000E-8	1.483586E-2
5.180000E-8	1.525896E-2
5.185000E-8	1.564951E-2
5.190000E-8	1.594242E-2
5.195000E-8	1.613941E-2
5.200000E-8	1.625247E-2
5.205000E-8	1.629358E-2
5.210000E-8	1.623705E-2
5.215000E-8	1.611029E-2
5.220000E-8	1.589446E-2
5.225000E-8	1.561525E-2
5.230000E-8	1.530692E-2
5.235000E-8	1.495063E-2
5.240000E-8	1.455151E-2
5.245000E-8	1.416610E-2
5.250000E-8	1.375841E-2
5.255000E-8	1.336443E-2
5.260000E-8	1.295504E-2
5.265000E-8	1.254736E-2
5.270000E-8	1.212083E-2
5.275000E-8	1.164292E-2
5.280000E-8	1.114103E-2
5.285000E-8	1.060145E-2
5.290000E-8	1.007214E-2
5.295000E-8	9.568538E-3
5.300000E-8	9.100902E-3
5.305000E-8	8.646970E-3
5.310000E-8	8.306093E-3
5.315000E-8	8.040586E-3
5.320000E-8	7.871004E-3
5.325000E-8	7.821328E-3
5.330000E-8	7.867578E-3
5.335000E-8	8.040586E-3
5.340000E-8	8.297529E-3
5.345000E-8	8.658961E-3
5.350000E-8	9.104328E-3
5.355000E-8	9.570250E-3
5.360000E-8	1.008414E-2
5.365000E-8	1.060659E-2
5.370000E-8	1.114274E-2
5.375000E-8	1.166176E-2
5.380000E-8	1.218250E-2
5.385000E-8	1.269296E-2
5.390000E-8	1.319999E-2
5.395000E-8	1.367277E-2
5.400000E-8	1.409244E-2
5.405000E-8	1.447957E-2
5.410000E-8	1.483757E-2
5.415000E-8	1.511164E-2
5.420000E-8	1.530863E-2
5.425000E-8	1.545766E-2
5.430000E-8	1.551761E-2
5.435000E-8	1.550220E-2
5.440000E-8	1.540970E-2
5.445000E-8	1.525039E-2
5.450000E-8	1.501229E-2
5.455000E-8	1.474165E-2
5.460000E-8	1.440077E-2
5.465000E-8	1.399823E-2
5.470000E-8	1.356999E-2
5.475000E-8	1.311777E-2
5.480000E-8	1.264328E-2
5.485000E-8	1.215338E-2
5.490000E-8	1.165834E-2
5.495000E-8	1.117700E-2
5.500000E-8	1.068709E-2
5.505000E-8	1.023830E-2
5.510000E-8	9.782656E-3
5.515000E-8	9.374974E-3
5.520000E-8	8.987847E-3
5.525000E-8	8.628128E-3
5.530000E-8	8.360908E-3
5.535000E-8	8.124521E-3
5.540000E-8	7.985772E-3
5.545000E-8	7.882995E-3
5.550000E-8	7.918967E-3
5.555000E-8	7.996049E-3
5.560000E-8	8.177622E-3
5.565000E-8	8.420861E-3
5.570000E-8	8.730905E-3
5.575000E-8	9.076921E-3
5.580000E-8	9.453770E-3
5.585000E-8	9.839184E-3
5.590000E-8	1.024515E-2
5.595000E-8	1.066140E-2
5.600000E-8	1.104853E-2
5.605000E-8	1.144250E-2
5.610000E-8	1.186389E-2
5.615000E-8	1.229042E-2
5.620000E-8	1.268611E-2
5.625000E-8	1.307666E-2
5.630000E-8	1.341582E-2
5.635000E-8	1.371216E-2
5.640000E-8	1.393656E-2
5.645000E-8	1.413184E-2
5.650000E-8	1.428943E-2
5.655000E-8	1.436137E-2
5.660000E-8	1.435109E-2
5.665000E-8	1.426545E-2
5.670000E-8	1.411128E-2
5.675000E-8	1.385776E-2
5.680000E-8	1.354772E-2
5.685000E-8	1.320856E-2
5.690000E-8	1.280259E-2
5.695000E-8	1.239319E-2
5.700000E-8	1.198380E-2
5.705000E-8	1.156412E-2
5.710000E-8	1.114445E-2
5.715000E-8	1.072992E-2
5.720000E-8	1.032052E-2
5.725000E-8	9.916266E-3
5.730000E-8	9.549695E-3
5.735000E-8	9.189976E-3
5.740000E-8	8.854237E-3
5.745000E-8	8.571601E-3
5.750000E-8	8.348917E-3
5.755000E-8	8.175909E-3
5.760000E-8	8.073132E-3
5.765000E-8	8.035447E-3
5.770000E-8	8.059429E-3
5.775000E-8	8.160493E-3
5.780000E-8	8.266695E-3
5.785000E-8	8.426000E-3
5.790000E-8	8.670952E-3
5.795000E-8	8.960440E-3
5.800000E-8	9.255068E-3
5.805000E-8	9.578815E-3
5.810000E-8	9.960803E-3
5.815000E-8	1.030682E-2
5.820000E-8	1.067168E-2
5.825000E-8	1.106394E-2
5.830000E-8	1.143394E-2
5.835000E-8	1.175426E-2
5.840000E-8	1.209685E-2
5.845000E-8	1.239491E-2
5.850000E-8	1.268611E-2
5.855000E-8	1.293448E-2
5.860000E-8	1.313661E-2
5.865000E-8	1.329249E-2
5.870000E-8	1.340555E-2
5.875000E-8	1.346379E-2
5.880000E-8	1.345693E-2
5.885000E-8	1.339527E-2
5.890000E-8	1.326166E-2
5.895000E-8	1.306467E-2
5.900000E-8	1.281115E-2
5.905000E-8	1.252852E-2
5.910000E-8	1.215681E-2
5.915000E-8	1.174056E-2
5.920000E-8	1.130718E-2
5.925000E-8	1.085496E-2
5.930000E-8	1.035478E-2
5.935000E-8	9.849461E-3
5.940000E-8	9.347567E-3
5.945000E-8	8.893635E-3
5.950000E-8	8.491092E-3
5.955000E-8	8.109104E-3
5.960000E-8	7.812764E-3
5.965000E-8	7.560960E-3
5.970000E-8	7.406795E-3
5.975000E-8	7.316008E-3
5.980000E-8	7.271471E-3
5.985000E-8	7.317721E-3
5.990000E-8	7.441054E-3
5.995000E-8	7.610636E-3
6.000000E-8	7.835032E-3
6.005000E-8	8.095400E-3
6.010000E-8	8.372898E-3
6.015000E-8	8.677803E-3
6.020000E-8	8.980996E-3
6.025000E-8	9.277336E-3
6.030000E-8	9.607935E-3
6.035000E-8	9.921405E-3
6.040000E-8	1.022974E-2
6.045000E-8	1.051409E-2
6.050000E-8	1.079501E-2
6.055000E-8	1.106737E-2
6.060000E-8	1.131403E-2
6.065000E-8	1.155556E-2
6.070000E-8	1.176283E-2
6.075000E-8	1.195982E-2
6.080000E-8	1.207801E-2
6.085000E-8	1.215509E-2
6.090000E-8	1.220819E-2
6.095000E-8	1.218935E-2
6.100000E-8	1.209685E-2
6.105000E-8	1.192384E-2
6.110000E-8	1.169602E-2
6.115000E-8	1.141510E-2
6.120000E-8	1.109820E-2
6.125000E-8	1.074876E-2
6.130000E-8	1.038048E-2
6.135000E-8	1.005330E-2
6.140000E-8	9.727842E-3
6.145000E-8	9.404094E-3
6.150000E-8	9.106041E-3
6.155000E-8	8.866228E-3
6.160000E-8	8.646970E-3
6.165000E-8	8.446555E-3
6.170000E-8	8.237575E-3
6.175000E-8	8.090262E-3
6.180000E-8	7.982346E-3
6.185000E-8	7.896698E-3
6.190000E-8	7.860726E-3
6.195000E-8	7.850449E-3
6.200000E-8	7.824754E-3
6.205000E-8	7.888134E-3
6.210000E-8	7.989198E-3
6.215000E-8	8.056003E-3
6.220000E-8	8.153641E-3
6.225000E-8	8.316371E-3
6.230000E-8	8.463685E-3
6.235000E-8	8.588730E-3
6.240000E-8	8.729192E-3
6.245000E-8	8.869654E-3
6.250000E-8	9.027245E-3
6.255000E-8	9.140300E-3
6.260000E-8	9.268771E-3
6.265000E-8	9.398955E-3
6.270000E-8	9.573676E-3
6.275000E-8	9.715851E-3
6.280000E-8	9.912840E-3
6.285000E-8	1.009613E-2
6.290000E-8	1.028112E-2
6.295000E-8	1.045413E-2
6.300000E-8	1.061858E-2
6.305000E-8	1.078816E-2
6.310000E-8	1.093033E-2
6.315000E-8	1.098001E-2
6.320000E-8	1.099029E-2
6.325000E-8	1.094575E-2
6.330000E-8	1.080186E-2
6.335000E-8	1.059288E-2
6.340000E-8	1.033423E-2
6.345000E-8	1.000020E-2
6.350000E-8	9.637056E-3
6.355000E-8	9.244790E-3
6.360000E-8	8.831969E-3
6.365000E-8	8.456833E-3
6.370000E-8	8.042299E-3
6.375000E-8	7.706561E-3
6.380000E-8	7.391378E-3
6.385000E-8	7.119019E-3
6.390000E-8	6.882632E-3
6.395000E-8	6.728466E-3
6.400000E-8	6.610273E-3
6.405000E-8	6.505783E-3
6.410000E-8	6.480089E-3
6.415000E-8	6.416709E-3
6.420000E-8	6.430413E-3
6.425000E-8	6.426987E-3
6.430000E-8	6.449255E-3
6.435000E-8	6.526338E-3
6.440000E-8	6.608560E-3
6.445000E-8	6.697633E-3
6.450000E-8	6.820966E-3
6.455000E-8	6.999112E-3
6.460000E-8	7.228648E-3
6.465000E-8	7.485590E-3
6.470000E-8	7.780218E-3
6.475000E-8	8.085123E-3
6.480000E-8	8.381463E-3
6.485000E-8	8.674378E-3
6.490000E-8	8.958727E-3
6.495000E-8	9.220809E-3
6.500000E-8	9.436640E-3
6.505000E-8	9.609648E-3
6.510000E-8	9.722703E-3
6.515000E-8	9.816915E-3
6.520000E-8	9.837471E-3
6.525000E-8	9.840897E-3
6.530000E-8	9.787795E-3
6.535000E-8	9.705574E-3
6.540000E-8	9.549695E-3
6.545000E-8	9.431502E-3
6.550000E-8	9.303030E-3
6.555000E-8	9.186550E-3
6.560000E-8	9.059791E-3
6.565000E-8	8.931320E-3
6.570000E-8	8.804562E-3
6.575000E-8	8.646970E-3
6.580000E-8	8.494518E-3
6.585000E-8	8.300954E-3
6.590000E-8	8.110817E-3
6.595000E-8	7.896698E-3
6.600000E-8	7.650033E-3
6.605000E-8	7.387952E-3
6.610000E-8	7.143000E-3
6.615000E-8	6.877493E-3
6.620000E-8	6.641106E-3
6.625000E-8	6.425274E-3
6.630000E-8	6.231711E-3
6.635000E-8	6.091249E-3
6.640000E-8	5.974768E-3
6.645000E-8	5.913102E-3
6.650000E-8	5.899398E-3
6.655000E-8	5.925093E-3
6.660000E-8	5.995324E-3
6.665000E-8	6.099814E-3
6.670000E-8	6.238563E-3
6.675000E-8	6.404719E-3
6.680000E-8	6.577727E-3
6.685000E-8	6.790133E-3
6.690000E-8	7.019668E-3
6.695000E-8	7.264620E-3
6.700000E-8	7.519849E-3
6.705000E-8	7.816190E-3
6.710000E-8	8.098826E-3
6.715000E-8	8.426000E-3
6.720000E-8	8.712062E-3
6.725000E-8	8.951875E-3
6.730000E-8	9.121458E-3
6.735000E-8	9.263632E-3
6.740000E-8	9.330437E-3
6.745000E-8	9.289327E-3
6.750000E-8	9.210531E-3
6.755000E-8	9.097476E-3
6.760000E-8	8.936459E-3
6.765000E-8	8.751460E-3
6.770000E-8	8.554471E-3
6.775000E-8	8.342065E-3
6.780000E-8	8.129659E-3
6.785000E-8	7.994336E-3
6.790000E-8	7.869291E-3
6.795000E-8	7.751098E-3
6.800000E-8	7.670589E-3
6.805000E-8	7.622626E-3
6.810000E-8	7.576377E-3
6.815000E-8	7.512997E-3
6.820000E-8	7.422211E-3
6.825000E-8	7.345128E-3
6.830000E-8	7.218370E-3
6.835000E-8	7.072769E-3
6.840000E-8	6.928881E-3
6.845000E-8	6.752448E-3
6.850000E-8	6.552032E-3
6.855000E-8	6.375599E-3
6.860000E-8	6.218007E-3
6.865000E-8	6.118656E-3
6.870000E-8	6.051851E-3
6.875000E-8	6.058703E-3
6.880000E-8	6.075832E-3
6.885000E-8	6.146063E-3
6.890000E-8	6.221433E-3
6.895000E-8	6.346478E-3
6.900000E-8	6.524625E-3
6.905000E-8	6.701059E-3
6.910000E-8	6.892910E-3
6.915000E-8	7.107028E-3
6.920000E-8	7.317721E-3
6.925000E-8	7.536979E-3
6.930000E-8	7.769940E-3
6.935000E-8	7.961790E-3
6.940000E-8	8.131372E-3
6.945000E-8	8.292390E-3
6.950000E-8	8.408870E-3
6.955000E-8	8.506508E-3
6.960000E-8	8.585304E-3
6.965000E-8	8.669239E-3
6.970000E-8	8.681229E-3
6.975000E-8	8.682942E-3
6.980000E-8	8.681229E-3
6.985000E-8	8.614424E-3
6.990000E-8	8.527064E-3
6.995000E-8	8.429426E-3
7.000000E-8	8.300954E-3
7.005000E-8	8.139937E-3
7.010000E-8	7.989198E-3
7.015000E-8	7.831606E-3
7.020000E-8	7.634617E-3
7.025000E-8	7.435915E-3
7.030000E-8	7.209805E-3
7.035000E-8	7.028233E-3
7.040000E-8	6.839808E-3
7.045000E-8	6.670226E-3
7.050000E-8	6.531477E-3
7.055000E-8	6.428700E-3
7.060000E-8	6.353330E-3
7.065000E-8	6.283099E-3
7.070000E-8	6.200878E-3
7.075000E-8	6.139212E-3
7.080000E-8	6.108378E-3
7.085000E-8	6.098101E-3
7.090000E-8	6.125508E-3
7.095000E-8	6.146063E-3
7.100000E-8	6.207730E-3
7.105000E-8	6.267683E-3
7.110000E-8	6.331062E-3
7.115000E-8	6.428700E-3
7.120000E-8	6.512635E-3
7.125000E-8	6.625689E-3
7.130000E-8	6.749022E-3
7.135000E-8	6.862076E-3
7.140000E-8	6.992261E-3
7.145000E-8	7.131010E-3
7.150000E-8	7.250916E-3
7.155000E-8	7.353693E-3
7.160000E-8	7.489016E-3
7.165000E-8	7.620913E-3
7.170000E-8	7.766514E-3
7.175000E-8	7.853875E-3
7.180000E-8	7.906976E-3
7.185000E-8	7.984059E-3
7.190000E-8	7.984059E-3
7.195000E-8	7.961790E-3
7.200000E-8	7.898411E-3
7.205000E-8	7.829893E-3
7.210000E-8	7.694570E-3
7.215000E-8	7.531840E-3
7.220000E-8	7.331425E-3
7.225000E-8	7.110454E-3
7.230000E-8	6.886058E-3
7.235000E-8	6.663374E-3
7.240000E-8	6.450968E-3
7.245000E-8	6.231711E-3
7.250000E-8	6.070694E-3
7.255000E-8	5.938796E-3
7.260000E-8	5.832593E-3
7.265000E-8	5.767501E-3
7.270000E-8	5.770927E-3
7.275000E-8	5.776066E-3
7.280000E-8	5.786344E-3
7.285000E-8	5.871991E-3
7.290000E-8	5.937083E-3
7.295000E-8	5.971342E-3
7.300000E-8	6.014166E-3
7.305000E-8	6.038147E-3
7.310000E-8	6.033009E-3
7.315000E-8	6.022731E-3
7.320000E-8	5.961065E-3
7.325000E-8	5.926806E-3
7.330000E-8	5.882269E-3
7.335000E-8	5.861714E-3
7.340000E-8	5.875417E-3
7.345000E-8	5.955926E-3
7.350000E-8	6.070694E-3
7.355000E-8	6.221433E-3
7.360000E-8	6.380737E-3
7.365000E-8	6.564023E-3
7.370000E-8	6.738744E-3
7.375000E-8	6.894622E-3
7.380000E-8	7.040223E-3
7.385000E-8	7.170407E-3
7.390000E-8	7.256055E-3
7.395000E-8	7.290314E-3
7.400000E-8	7.281749E-3
7.405000E-8	7.269759E-3
7.410000E-8	7.230361E-3
7.415000E-8	7.149852E-3
7.420000E-8	7.067630E-3
7.425000E-8	6.920317E-3
7.430000E-8	6.766151E-3
7.435000E-8	6.598282E-3
7.440000E-8	6.418422E-3
7.445000E-8	6.259118E-3
7.450000E-8	6.146063E-3
7.455000E-8	6.007314E-3
7.460000E-8	5.871991E-3
7.465000E-8	5.834306E-3
7.470000E-8	5.777779E-3
7.475000E-8	5.750372E-3
7.480000E-8	5.774353E-3
7.485000E-8	5.779492E-3
7.490000E-8	5.791483E-3
7.495000E-8	5.806899E-3
7.500000E-8	5.793196E-3
7.505000E-8	5.786344E-3
7.510000E-8	5.738381E-3
7.515000E-8	5.685280E-3
7.520000E-8	5.601345E-3
7.525000E-8	5.469448E-3
7.530000E-8	5.363245E-3
7.535000E-8	5.318708E-3
7.540000E-8	5.299866E-3
7.545000E-8	5.337551E-3
7.550000E-8	5.414634E-3
7.555000E-8	5.522549E-3
7.560000E-8	5.698983E-3
7.565000E-8	5.907963E-3
7.570000E-8	6.135786E-3
7.575000E-8	6.351617E-3
7.580000E-8	6.528051E-3
7.585000E-8	6.699346E-3
7.590000E-8	6.863789E-3
7.595000E-8	6.963140E-3
7.600000E-8	7.029946E-3
7.605000E-8	7.059066E-3
7.610000E-8	7.041936E-3
7.615000E-8	6.971705E-3
7.620000E-8	6.884345E-3
7.625000E-8	6.820966E-3
7.630000E-8	6.766151E-3
7.635000E-8	6.701059E-3
7.640000E-8	6.632541E-3
7.645000E-8	6.558884E-3
7.650000E-8	6.493792E-3
7.655000E-8	6.418422E-3
7.660000E-8	6.339627E-3
7.665000E-8	6.236850E-3
7.670000E-8	6.132360E-3
7.675000E-8	6.007314E-3
7.680000E-8	5.841158E-3
7.685000E-8	5.671576E-3
7.690000E-8	5.486578E-3
7.695000E-8	5.296440E-3
7.700000E-8	5.113154E-3
7.705000E-8	4.953850E-3
7.710000E-8	4.840795E-3
7.715000E-8	4.758574E-3
7.720000E-8	4.698621E-3
7.725000E-8	4.698621E-3
7.730000E-8	4.705472E-3
7.735000E-8	4.743157E-3
7.740000E-8	4.791120E-3
7.745000E-8	4.876767E-3
7.750000E-8	4.972693E-3
7.755000E-8	5.058340E-3
7.760000E-8	5.130284E-3
7.765000E-8	5.188524E-3
7.770000E-8	5.279311E-3
7.775000E-8	5.315283E-3
7.780000E-8	5.358106E-3
7.785000E-8	5.370097E-3
7.790000E-8	5.428337E-3
7.795000E-8	5.486578E-3
7.800000E-8	5.570512E-3
7.805000E-8	5.647595E-3
7.810000E-8	5.702409E-3
7.815000E-8	5.760650E-3
7.820000E-8	5.769214E-3
7.825000E-8	5.788057E-3
7.830000E-8	5.752085E-3
7.835000E-8	5.683567E-3
7.840000E-8	5.565373E-3
7.845000E-8	5.431763E-3
7.850000E-8	5.291301E-3
7.855000E-8	5.171395E-3
7.860000E-8	5.049775E-3
7.865000E-8	4.991535E-3
7.870000E-8	4.976118E-3
7.875000E-8	4.998387E-3
7.880000E-8	5.070331E-3
7.885000E-8	5.159404E-3
7.890000E-8	5.272459E-3
7.895000E-8	5.364958E-3
7.900000E-8	5.433476E-3
7.905000E-8	5.501994E-3
7.910000E-8	5.575651E-3
7.915000E-8	5.613336E-3
7.920000E-8	5.625326E-3
7.925000E-8	5.645882E-3
7.930000E-8	5.633891E-3
7.935000E-8	5.601345E-3
7.940000E-8	5.524262E-3
7.945000E-8	5.419772E-3
7.950000E-8	5.303292E-3
7.955000E-8	5.191950E-3
7.960000E-8	5.089173E-3
7.965000E-8	5.013803E-3
7.970000E-8	4.921304E-3
7.975000E-8	4.864777E-3
7.980000E-8	4.863064E-3
7.985000E-8	4.887045E-3
7.990000E-8	4.935008E-3
7.995000E-8	5.032646E-3
8.000000E-8	5.193663E-3
8.005000E-8	5.380375E-3
8.010000E-8	5.560234E-3
8.015000E-8	5.736668E-3
8.020000E-8	5.895973E-3
8.025000E-8	6.019305E-3
8.030000E-8	6.084397E-3
8.035000E-8	6.101527E-3
8.040000E-8	6.074119E-3
8.045000E-8	5.985046E-3
8.050000E-8	5.877130E-3
8.055000E-8	5.738381E-3
8.060000E-8	5.584216E-3
8.065000E-8	5.450606E-3
8.070000E-8	5.347829E-3
8.075000E-8	5.245052E-3
8.080000E-8	5.169682E-3
8.085000E-8	5.154265E-3
8.090000E-8	5.120006E-3
8.095000E-8	5.130284E-3
8.100000E-8	5.167969E-3
8.105000E-8	5.207367E-3
8.110000E-8	5.214218E-3
8.115000E-8	5.227922E-3
8.120000E-8	5.255329E-3
8.125000E-8	5.251903E-3
8.130000E-8	5.258755E-3
8.135000E-8	5.238200E-3
8.140000E-8	5.210793E-3
8.145000E-8	5.131997E-3
8.150000E-8	5.072044E-3
8.155000E-8	4.989822E-3
8.160000E-8	4.861351E-3
8.165000E-8	4.729454E-3
8.170000E-8	4.573575E-3
8.175000E-8	4.436539E-3
8.180000E-8	4.304642E-3
8.185000E-8	4.230985E-3
8.190000E-8	4.167606E-3
8.195000E-8	4.104227E-3
8.200000E-8	4.119643E-3
8.205000E-8	4.176171E-3
8.210000E-8	4.265244E-3
8.215000E-8	4.364595E-3
8.220000E-8	4.469085E-3
8.225000E-8	4.544455E-3
8.230000E-8	4.602695E-3
8.235000E-8	4.645519E-3
8.240000E-8	4.672926E-3
8.245000E-8	4.686630E-3
8.250000E-8	4.710611E-3
8.255000E-8	4.698621E-3
8.260000E-8	4.714037E-3
8.265000E-8	4.712324E-3
8.270000E-8	4.755148E-3
8.275000E-8	4.792833E-3
8.280000E-8	4.849360E-3
8.285000E-8	4.924730E-3
8.290000E-8	4.986396E-3
8.295000E-8	5.049775E-3
8.300000E-8	5.113154E-3
8.305000E-8	5.131997E-3
8.310000E-8	5.130284E-3
8.315000E-8	5.084034E-3
8.320000E-8	5.039498E-3
8.325000E-8	4.957276E-3
8.330000E-8	4.881906E-3
8.335000E-8	4.797972E-3
8.340000E-8	4.727741E-3
8.345000E-8	4.660936E-3
8.350000E-8	4.623251E-3
8.355000E-8	4.575288E-3
8.360000E-8	4.554733E-3
8.365000E-8	4.537603E-3
8.370000E-8	4.522187E-3
8.375000E-8	4.523900E-3
8.380000E-8	4.520474E-3
8.385000E-8	4.503344E-3
8.390000E-8	4.491354E-3
8.395000E-8	4.486215E-3
8.400000E-8	4.470798E-3
8.405000E-8	4.448530E-3
8.410000E-8	4.419410E-3
8.415000E-8	4.421123E-3
8.420000E-8	4.407419E-3
8.425000E-8	4.376586E-3
8.430000E-8	4.352605E-3
8.435000E-8	4.338901E-3
8.440000E-8	4.328623E-3
8.445000E-8	4.314920E-3
8.450000E-8	4.323484E-3
8.455000E-8	4.316633E-3
8.460000E-8	4.338901E-3
8.465000E-8	4.368021E-3
8.470000E-8	4.374873E-3
8.475000E-8	4.390289E-3
8.480000E-8	4.405706E-3
8.485000E-8	4.451956E-3
8.490000E-8	4.517048E-3
8.495000E-8	4.582140E-3
8.500000E-8	4.640380E-3
8.505000E-8	4.693482E-3
8.510000E-8	4.712324E-3
8.515000E-8	4.700333E-3
8.520000E-8	4.695195E-3
8.525000E-8	4.631815E-3
8.530000E-8	4.588992E-3
8.535000E-8	4.511909E-3
8.540000E-8	4.412558E-3
8.545000E-8	4.302929E-3
8.550000E-8	4.183023E-3
8.555000E-8	4.044274E-3
8.560000E-8	3.920941E-3
8.565000E-8	3.819877E-3
8.570000E-8	3.720526E-3
8.575000E-8	3.626314E-3
8.580000E-8	3.544092E-3
8.585000E-8	3.485852E-3
8.590000E-8	3.432750E-3
8.595000E-8	3.403630E-3
8.600000E-8	3.372797E-3
8.605000E-8	3.377936E-3
8.610000E-8	3.398491E-3
8.615000E-8	3.444741E-3
8.620000E-8	3.460158E-3
8.625000E-8	3.502981E-3
8.630000E-8	3.590342E-3
8.635000E-8	3.677702E-3
8.640000E-8	3.734230E-3
8.645000E-8	3.795896E-3
8.650000E-8	3.823303E-3
8.655000E-8	3.838720E-3
8.660000E-8	3.801035E-3
8.665000E-8	3.777053E-3
8.670000E-8	3.727378E-3
8.675000E-8	3.646869E-3
8.680000E-8	3.569786E-3
8.685000E-8	3.497843E-3
8.690000E-8	3.467009E-3
8.695000E-8	3.475574E-3
8.700000E-8	3.530389E-3
8.705000E-8	3.604045E-3
8.710000E-8	3.705109E-3
8.715000E-8	3.891821E-3
8.720000E-8	4.081958E-3
8.725000E-8	4.284087E-3
8.730000E-8	4.474224E-3
8.735000E-8	4.630103E-3
8.740000E-8	4.726028E-3
8.745000E-8	4.760287E-3
8.750000E-8	4.703759E-3
8.755000E-8	4.578714E-3
8.760000E-8	4.397141E-3
8.765000E-8	4.135060E-3
8.770000E-8	3.888395E-3
8.775000E-8	3.619462E-3
8.780000E-8	3.367658E-3
8.785000E-8	3.160391E-3
8.790000E-8	3.011365E-3
8.795000E-8	2.932569E-3
8.800000E-8	2.882893E-3
8.805000E-8	2.891458E-3
8.810000E-8	2.939421E-3
8.815000E-8	3.026781E-3
8.820000E-8	3.103864E-3
8.825000E-8	3.203215E-3
8.830000E-8	3.275159E-3
8.835000E-8	3.323122E-3
8.840000E-8	3.345390E-3
8.845000E-8	3.353955E-3
8.850000E-8	3.396778E-3
8.855000E-8	3.395066E-3
8.860000E-8	3.391640E-3
8.865000E-8	3.379649E-3
8.870000E-8	3.350529E-3
8.875000E-8	3.352242E-3
8.880000E-8	3.345390E-3
8.885000E-8	3.388214E-3
8.890000E-8	3.451593E-3
8.895000E-8	3.525250E-3
8.900000E-8	3.583490E-3
8.905000E-8	3.650295E-3
8.910000E-8	3.720526E-3
8.915000E-8	3.790757E-3
8.920000E-8	3.864414E-3
8.925000E-8	3.876404E-3
8.930000E-8	3.855849E-3
8.935000E-8	3.789044E-3
8.940000E-8	3.711961E-3
8.945000E-8	3.609184E-3
8.950000E-8	3.458445E-3
8.955000E-8	3.335112E-3
8.960000E-8	3.199789E-3
8.965000E-8	3.069605E-3
8.970000E-8	2.935995E-3
8.975000E-8	2.845209E-3
8.980000E-8	2.792107E-3
8.985000E-8	2.771552E-3
8.990000E-8	2.814375E-3
8.995000E-8	2.893171E-3
9.000000E-8	3.002800E-3
9.005000E-8	3.143262E-3
9.010000E-8	3.264881E-3
9.015000E-8	3.338538E-3
9.020000E-8	3.425899E-3
9.025000E-8	3.465296E-3
9.030000E-8	3.472148E-3
9.035000E-8	3.448167E-3
9.040000E-8	3.391640E-3
9.045000E-8	3.280298E-3
9.050000E-8	3.182660E-3
9.055000E-8	3.081596E-3
9.060000E-8	3.007939E-3
9.065000E-8	2.997661E-3
9.070000E-8	3.011365E-3
9.075000E-8	3.076457E-3
9.080000E-8	3.191224E-3
9.085000E-8	3.348816E-3
9.090000E-8	3.508120E-3
9.095000E-8	3.643443E-3
9.100000E-8	3.747933E-3
9.105000E-8	3.816451E-3
9.110000E-8	3.843858E-3
9.115000E-8	3.830155E-3
9.120000E-8	3.768489E-3
9.125000E-8	3.713674E-3
9.130000E-8	3.646869E-3
9.135000E-8	3.552657E-3
9.140000E-8	3.489278E-3
9.145000E-8	3.461871E-3
9.150000E-8	3.473861E-3
9.155000E-8	3.506407E-3
9.160000E-8	3.571499E-3
9.165000E-8	3.648582E-3
9.170000E-8	3.722239E-3
9.175000E-8	3.775340E-3
9.180000E-8	3.783905E-3
9.185000E-8	3.773627E-3
9.190000E-8	3.744507E-3
9.195000E-8	3.686267E-3
9.200000E-8	3.604045E-3
9.205000E-8	3.514972E-3
9.210000E-8	3.410482E-3
9.215000E-8	3.336825E-3
9.220000E-8	3.273446E-3
9.225000E-8	3.232335E-3
9.230000E-8	3.198076E-3
9.235000E-8	3.211780E-3
9.240000E-8	3.222058E-3
9.245000E-8	3.242613E-3
9.250000E-8	3.251178E-3
9.255000E-8	3.247752E-3
9.260000E-8	3.263168E-3
9.265000E-8	3.252891E-3
9.270000E-8	3.256317E-3
9.275000E-8	3.215206E-3
9.280000E-8	3.239187E-3
9.285000E-8	3.268307E-3
9.290000E-8	3.311131E-3
9.295000E-8	3.353955E-3
9.300000E-8	3.372797E-3
9.305000E-8	3.369371E-3
9.310000E-8	3.393353E-3
9.315000E-8	3.413908E-3
9.320000E-8	3.400204E-3
9.325000E-8	3.415621E-3
9.330000E-8	3.376223E-3
9.335000E-8	3.355668E-3
9.340000E-8	3.324835E-3
9.345000E-8	3.335112E-3
9.350000E-8	3.365945E-3
9.355000E-8	3.376223E-3
9.360000E-8	3.389927E-3
9.365000E-8	3.432750E-3
9.370000E-8	3.477287E-3
9.375000E-8	3.544092E-3
9.380000E-8	3.602332E-3
9.385000E-8	3.616036E-3
9.390000E-8	3.643443E-3
9.395000E-8	3.646869E-3
9.400000E-8	3.629740E-3
9.405000E-8	3.616036E-3
9.410000E-8	3.564648E-3
9.415000E-8	3.508120E-3
9.420000E-8	3.451593E-3
9.425000E-8	3.412195E-3
9.430000E-8	3.417334E-3
9.435000E-8	3.401917E-3
9.440000E-8	3.374510E-3
9.445000E-8	3.369371E-3
9.450000E-8	3.372797E-3
9.455000E-8	3.381362E-3
9.460000E-8	3.364232E-3
9.465000E-8	3.367658E-3
9.470000E-8	3.328260E-3
9.475000E-8	3.264881E-3
9.480000E-8	3.187799E-3
9.485000E-8	3.095299E-3
9.490000E-8	2.992522E-3
9.495000E-8	2.853773E-3
9.500000E-8	2.773265E-3
9.505000E-8	2.694469E-3
9.510000E-8	2.636229E-3
9.515000E-8	2.596831E-3
9.520000E-8	2.589979E-3
9.525000E-8	2.637942E-3
9.530000E-8	2.672201E-3
9.535000E-8	2.721876E-3
9.540000E-8	2.749283E-3
9.545000E-8	2.805811E-3
9.550000E-8	2.841783E-3
9.555000E-8	2.845209E-3
9.560000E-8	2.833218E-3
9.565000E-8	2.812663E-3
9.570000E-8	2.766413E-3
9.575000E-8	2.680765E-3
9.580000E-8	2.619099E-3
9.585000E-8	2.543729E-3
9.590000E-8	2.478637E-3
9.595000E-8	2.422110E-3
9.600000E-8	2.410119E-3
9.605000E-8	2.451230E-3
9.610000E-8	2.482063E-3
9.615000E-8	2.538590E-3
9.620000E-8	2.584840E-3
9.625000E-8	2.677339E-3
9.630000E-8	2.735580E-3
9.635000E-8	2.821227E-3
9.640000E-8	2.869190E-3
9.645000E-8	2.900023E-3
9.650000E-8	2.881181E-3
9.655000E-8	2.848634E-3
9.660000E-8	2.762987E-3
9.665000E-8	2.708173E-3
9.670000E-8	2.632803E-3
9.675000E-8	2.562572E-3
9.680000E-8	2.502619E-3
9.685000E-8	2.470072E-3
9.690000E-8	2.434101E-3
9.695000E-8	2.422110E-3
9.700000E-8	2.444378E-3
9.705000E-8	2.413545E-3
9.710000E-8	2.434101E-3
9.715000E-8	2.416971E-3
9.720000E-8	2.411832E-3
9.725000E-8	2.418684E-3
9.730000E-8	2.454656E-3
9.735000E-8	2.500906E-3
9.740000E-8	2.543729E-3
9.745000E-8	2.589979E-3
9.750000E-8	2.607108E-3
9.755000E-8	2.620812E-3
9.760000E-8	2.612247E-3
9.765000E-8	2.572849E-3
9.770000E-8	2.518035E-3
9.775000E-8	2.447804E-3
9.780000E-8	2.358731E-3
9.785000E-8	2.293639E-3
9.790000E-8	2.187436E-3
9.795000E-8	2.100075E-3
9.800000E-8	2.029844E-3
9.805000E-8	2.016141E-3
9.810000E-8	2.046974E-3
9.815000E-8	2.086372E-3
9.820000E-8	2.163454E-3
9.825000E-8	2.264518E-3
9.830000E-8	2.346740E-3
9.835000E-8	2.420397E-3
9.840000E-8	2.499193E-3
9.845000E-8	2.512896E-3
9.850000E-8	2.512896E-3
9.855000E-8	2.523174E-3
9.860000E-8	2.470072E-3
9.865000E-8	2.415258E-3
9.870000E-8	2.367295E-3
9.875000E-8	2.309055E-3
9.880000E-8	2.249102E-3
9.885000E-8	2.170306E-3
9.890000E-8	2.091511E-3
9.895000E-8	2.046974E-3
9.900000E-8	2.033270E-3
9.905000E-8	2.045261E-3
9.910000E-8	2.067529E-3
9.915000E-8	2.132621E-3
9.920000E-8	2.202852E-3
9.925000E-8	2.267944E-3
9.930000E-8	2.351879E-3
9.935000E-8	2.415258E-3
9.940000E-8	2.447804E-3
9.945000E-8	2.494054E-3
9.950000E-8	2.533452E-3
9.955000E-8	2.583127E-3
9.960000E-8	2.588266E-3
9.965000E-8	2.583127E-3
9.970000E-8	2.579701E-3
9.975000E-8	2.586553E-3
9.980000E-8	2.557433E-3
9.985000E-8	2.542016E-3
9.990000E-8	2.550581E-3
9.995000E-8	2.565998E-3
1.000000E-7	2.564285E-3
1.000500E-7	2.567711E-3
1.001000E-7	2.576275E-3
1.001500E-7	2.596831E-3
1.002000E-7	2.601970E-3
1.002500E-7	2.637942E-3
1.003000E-7	2.680765E-3
1.003500E-7	2.689330E-3
1.004000E-7	2.658497E-3
1.004500E-7	2.627664E-3
1.005000E-7	2.562572E-3
1.005500E-7	2.470072E-3
1.006000E-7	2.363870E-3
1.006500E-7	2.281648E-3
1.007000E-7	2.216556E-3
1.007500E-7	2.106927E-3
1.008000E-7	2.041835E-3
1.008500E-7	2.022993E-3
1.009000E-7	2.040122E-3
1.009500E-7	2.088085E-3
1.010000E-7	2.137760E-3
1.010500E-7	2.197713E-3
1.011000E-7	2.262806E-3
1.011500E-7	2.345027E-3
1.012000E-7	2.382712E-3
1.012500E-7	2.418684E-3
1.013000E-7	2.425536E-3
1.013500E-7	2.396416E-3
1.014000E-7	2.350166E-3
1.014500E-7	2.322759E-3
1.015000E-7	2.297065E-3
1.015500E-7	2.257667E-3
1.016000E-7	2.221695E-3
1.016500E-7	2.187436E-3
1.017000E-7	2.153177E-3
1.017500E-7	2.165167E-3
1.018000E-7	2.142899E-3
1.018500E-7	2.144612E-3
1.019000E-7	2.163454E-3
1.019500E-7	2.223408E-3
1.020000E-7	2.286787E-3
1.020500E-7	2.327898E-3
1.021000E-7	2.372434E-3
1.021500E-7	2.415258E-3
1.022000E-7	2.434101E-3
1.022500E-7	2.440952E-3
1.023000E-7	2.394703E-3
1.023500E-7	2.326185E-3
1.024000E-7	2.238824E-3
1.024500E-7	2.146325E-3
1.025000E-7	2.029844E-3
1.025500E-7	1.920216E-3
1.026000E-7	1.784892E-3
1.026500E-7	1.680403E-3
1.027000E-7	1.575913E-3
1.027500E-7	1.497117E-3
1.028000E-7	1.435451E-3
1.028500E-7	1.402905E-3
1.029000E-7	1.358368E-3
1.029500E-7	1.293276E-3
1.030000E-7	1.298415E-3
1.030500E-7	1.330961E-3
1.031000E-7	1.324109E-3
1.031500E-7	1.353229E-3
1.032000E-7	1.406331E-3
1.032500E-7	1.466284E-3
1.033000E-7	1.563922E-3
1.033500E-7	1.673551E-3
1.034000E-7	1.774615E-3
1.034500E-7	1.802022E-3
1.035000E-7	1.860262E-3
1.035500E-7	1.877392E-3
1.036000E-7	1.868827E-3
1.036500E-7	1.848272E-3
1.037000E-7	1.831142E-3
1.037500E-7	1.793457E-3
1.038000E-7	1.750633E-3
1.038500E-7	1.747208E-3
1.039000E-7	1.767763E-3
1.039500E-7	1.800309E-3
1.040000E-7	1.839707E-3
1.040500E-7	1.909938E-3
1.041000E-7	1.969891E-3
1.041500E-7	2.019567E-3
1.042000E-7	2.048687E-3
1.042500E-7	2.057252E-3
1.043000E-7	2.067529E-3
1.043500E-7	2.033270E-3
1.044000E-7	2.014428E-3
1.044500E-7	1.952762E-3
1.045000E-7	1.896234E-3
1.045500E-7	1.836281E-3
1.046000E-7	1.800309E-3
1.046500E-7	1.743782E-3
1.047000E-7	1.687254E-3
1.047500E-7	1.697532E-3
1.048000E-7	1.707810E-3
1.048500E-7	1.721513E-3
1.049000E-7	1.730078E-3
1.049500E-7	1.774615E-3
1.050000E-7	1.781467E-3
1.050500E-7	1.783180E-3
1.051000E-7	1.769476E-3
1.051500E-7	1.788318E-3
1.052000E-7	1.757485E-3
1.052500E-7	1.731791E-3
1.053000E-7	1.709523E-3
1.053500E-7	1.683828E-3
1.054000E-7	1.675264E-3
1.054500E-7	1.676977E-3
1.055000E-7	1.685541E-3
1.055500E-7	1.678690E-3
1.056000E-7	1.654708E-3
1.056500E-7	1.649569E-3
1.057000E-7	1.630727E-3
1.057500E-7	1.587903E-3
1.058000E-7	1.543367E-3
1.058500E-7	1.510820E-3
1.059000E-7	1.473136E-3
1.059500E-7	1.425173E-3
1.060000E-7	1.399479E-3
1.060500E-7	1.392627E-3
1.061000E-7	1.397766E-3
1.061500E-7	1.423460E-3
1.062000E-7	1.500543E-3
1.062500E-7	1.574200E-3
1.063000E-7	1.661560E-3
1.063500E-7	1.757485E-3
1.064000E-7	1.832855E-3
1.064500E-7	1.904799E-3
1.065000E-7	1.916790E-3
1.065500E-7	1.909938E-3
1.066000E-7	1.867114E-3
1.066500E-7	1.831142E-3
1.067000E-7	1.803735E-3
1.067500E-7	1.772902E-3
1.068000E-7	1.738643E-3
1.068500E-7	1.688967E-3
1.069000E-7	1.641005E-3
1.069500E-7	1.615310E-3
1.070000E-7	1.623875E-3
1.070500E-7	1.574200E-3
1.071000E-7	1.527950E-3
1.071500E-7	1.485126E-3
1.072000E-7	1.426886E-3
1.072500E-7	1.348090E-3
1.073000E-7	1.279572E-3
1.073500E-7	1.217906E-3
1.074000E-7	1.166518E-3
1.074500E-7	1.123694E-3
1.075000E-7	1.116842E-3
1.075500E-7	1.142536E-3
1.076000E-7	1.195638E-3
1.076500E-7	1.248739E-3
1.077000E-7	1.318970E-3
1.077500E-7	1.365220E-3
1.078000E-7	1.361794E-3
1.078500E-7	1.378923E-3
1.079000E-7	1.370359E-3
1.079500E-7	1.329248E-3
1.080000E-7	1.303554E-3
1.080500E-7	1.298415E-3
1.081000E-7	1.281285E-3
1.081500E-7	1.300128E-3
1.082000E-7	1.312118E-3
1.082500E-7	1.336100E-3
1.083000E-7	1.370359E-3
1.083500E-7	1.437164E-3
1.084000E-7	1.514246E-3
1.084500E-7	1.611885E-3
1.085000E-7	1.724939E-3
1.085500E-7	1.837994E-3
1.086000E-7	1.951049E-3
1.086500E-7	2.045261E-3
1.087000E-7	2.136047E-3
1.087500E-7	2.218269E-3
1.088000E-7	2.254241E-3
1.088500E-7	2.261093E-3
1.089000E-7	2.262806E-3
1.089500E-7	2.196000E-3
1.090000E-7	2.079520E-3
1.090500E-7	1.920216E-3
1.091000E-7	1.762624E-3
1.091500E-7	1.587903E-3
1.092000E-7	1.432025E-3
1.092500E-7	1.306979E-3
1.093000E-7	1.164805E-3
1.093500E-7	1.108277E-3
1.094000E-7	1.031194E-3
1.094500E-7	9.917966E-4
1.095000E-7	9.815189E-4
1.095500E-7	9.935095E-4
1.096000E-7	1.014065E-3
1.096500E-7	1.039759E-3
1.097000E-7	1.077444E-3
1.097500E-7	1.103138E-3
1.098000E-7	1.109990E-3
1.098500E-7	1.118555E-3
1.099000E-7	1.132259E-3
1.099500E-7	1.164805E-3
1.100000E-7	1.199064E-3
1.100500E-7	1.243600E-3
1.101000E-7	1.293276E-3
1.101500E-7	1.332674E-3
1.102000E-7	1.401192E-3
1.102500E-7	1.450867E-3
1.103000E-7	1.502256E-3
1.103500E-7	1.515959E-3
1.104000E-7	1.485126E-3
1.104500E-7	1.462858E-3
1.105000E-7	1.404618E-3
1.105500E-7	1.368646E-3
1.106000E-7	1.317257E-3
1.106500E-7	1.272720E-3
1.107000E-7	1.231610E-3
1.107500E-7	1.211054E-3
1.108000E-7	1.157953E-3
1.108500E-7	1.121981E-3
1.109000E-7	1.091148E-3
1.109500E-7	1.010639E-3
1.110000E-7	9.438340E-4
1.110500E-7	9.198527E-4
1.111000E-7	8.581865E-4
1.111500E-7	8.067980E-4
1.112000E-7	7.622613E-4
1.112500E-7	6.817526E-4
1.113000E-7	6.560584E-4
1.113500E-7	6.680490E-4
1.114000E-7	7.125857E-4
1.114500E-7	7.674001E-4
1.115000E-7	8.701771E-4
1.115500E-7	9.626764E-4
1.116000E-7	1.065453E-3
1.116500E-7	1.173369E-3
1.117000E-7	1.300128E-3
1.117500E-7	1.380636E-3
1.118000E-7	1.471423E-3
1.118500E-7	1.536515E-3
1.119000E-7	1.548505E-3
1.119500E-7	1.582764E-3
1.120000E-7	1.596468E-3
1.120500E-7	1.603320E-3
1.121000E-7	1.551931E-3
1.121500E-7	1.481700E-3
1.122000E-7	1.397766E-3
1.122500E-7	1.327535E-3
1.123000E-7	1.269295E-3
1.123500E-7	1.231610E-3
1.124000E-7	1.209341E-3
1.124500E-7	1.185360E-3
1.125000E-7	1.181934E-3
1.125500E-7	1.192212E-3
1.126000E-7	1.252165E-3
1.126500E-7	1.334387E-3
1.127000E-7	1.408043E-3
1.127500E-7	1.476561E-3
1.128000E-7	1.548505E-3
1.128500E-7	1.641005E-3
1.129000E-7	1.700958E-3
1.129500E-7	1.731791E-3
1.130000E-7	1.721513E-3
1.130500E-7	1.700958E-3
1.131000E-7	1.651282E-3
1.131500E-7	1.584477E-3
1.132000E-7	1.507395E-3
1.132500E-7	1.421747E-3
1.133000E-7	1.358368E-3
1.133500E-7	1.282998E-3
1.134000E-7	1.247026E-3
1.134500E-7	1.211054E-3
1.135000E-7	1.204202E-3
1.135500E-7	1.180221E-3
1.136000E-7	1.175082E-3
1.136500E-7	1.193925E-3
1.137000E-7	1.252165E-3
1.137500E-7	1.301841E-3
1.138000E-7	1.344664E-3
1.138500E-7	1.406331E-3
1.139000E-7	1.449154E-3
1.139500E-7	1.450867E-3
1.140000E-7	1.449154E-3
1.140500E-7	1.390914E-3
1.141000E-7	1.334387E-3
1.141500E-7	1.284711E-3
1.142000E-7	1.224758E-3
1.142500E-7	1.205915E-3
1.143000E-7	1.211054E-3
1.143500E-7	1.228184E-3
1.144000E-7	1.276146E-3
1.144500E-7	1.332674E-3
1.145000E-7	1.402905E-3
1.145500E-7	1.497117E-3
1.146000E-7	1.507395E-3
1.146500E-7	1.545079E-3
1.147000E-7	1.539941E-3
1.147500E-7	1.514246E-3
1.148000E-7	1.459432E-3
1.148500E-7	1.399479E-3
1.149000E-7	1.305266E-3
1.149500E-7	1.171656E-3
1.150000E-7	1.034620E-3
1.150500E-7	9.249915E-4
1.151000E-7	8.102239E-4
1.151500E-7	6.903174E-4
1.152000E-7	6.406418E-4
1.152500E-7	5.875404E-4
1.153000E-7	5.995310E-4
1.153500E-7	6.217994E-4
1.154000E-7	6.800397E-4
1.154500E-7	7.588354E-4
1.155000E-7	8.633253E-4
1.155500E-7	9.866577E-4
1.156000E-7	1.118555E-3
1.156500E-7	1.247026E-3
1.157000E-7	1.375497E-3
1.157500E-7	1.444015E-3
1.158000E-7	1.466284E-3
1.158500E-7	1.440590E-3
1.159000E-7	1.370359E-3
1.159500E-7	1.303554E-3
1.160000E-7	1.190499E-3
1.160500E-7	1.041472E-3
1.161000E-7	9.421210E-4
1.161500E-7	8.136498E-4
1.162000E-7	7.177246E-4
1.162500E-7	6.577713E-4
1.163000E-7	6.252253E-4
1.163500E-7	6.269382E-4
1.164000E-7	6.577713E-4
1.164500E-7	7.639742E-4
1.165000E-7	8.598994E-4
1.165500E-7	9.455469E-4
1.166000E-7	1.014065E-3
1.166500E-7	1.084296E-3
1.167000E-7	1.121981E-3
1.167500E-7	1.096287E-3
1.168000E-7	1.056889E-3
1.168500E-7	1.015778E-3
1.169000E-7	9.232786E-4
1.169500E-7	8.187886E-4
1.170000E-7	7.297152E-4
1.170500E-7	6.560584E-4
1.171000E-7	6.320771E-4
1.171500E-7	6.217994E-4
1.172000E-7	6.646231E-4
1.172500E-7	7.245764E-4
1.173000E-7	8.239275E-4
1.173500E-7	9.010102E-4
1.174000E-7	1.008926E-3
1.174500E-7	1.132259E-3
1.175000E-7	1.240174E-3
1.175500E-7	1.315544E-3
1.176000E-7	1.336100E-3
1.176500E-7	1.320683E-3
1.177000E-7	1.257304E-3
1.177500E-7	1.193925E-3
1.178000E-7	1.074018E-3
1.178500E-7	9.643894E-4
1.179000E-7	8.650383E-4
1.179500E-7	7.451318E-4
1.180000E-7	6.098087E-4
1.180500E-7	5.275871E-4
1.181000E-7	4.505044E-4
1.181500E-7	3.785605E-4
1.182000E-7	3.374497E-4
1.182500E-7	3.494403E-4
1.183000E-7	3.905511E-4
1.183500E-7	4.436526E-4
1.184000E-7	4.916152E-4
1.184500E-7	5.224483E-4
1.185000E-7	5.652720E-4
1.185500E-7	5.601332E-4
1.186000E-7	5.721238E-4
1.186500E-7	5.738368E-4
1.187000E-7	5.275871E-4
1.187500E-7	4.864763E-4
1.188000E-7	4.436526E-4
1.188500E-7	3.922641E-4
1.189000E-7	3.562921E-4
1.189500E-7	3.288849E-4
1.190000E-7	3.357367E-4
1.190500E-7	3.819864E-4
1.191000E-7	4.042547E-4
1.191500E-7	4.539303E-4
1.192000E-7	4.933281E-4
1.192500E-7	5.669850E-4
1.193000E-7	6.217994E-4
1.193500E-7	6.509195E-4
1.194000E-7	6.749008E-4
1.194500E-7	6.868915E-4
1.195000E-7	6.766138E-4
1.195500E-7	7.023080E-4
1.196000E-7	6.920303E-4
1.196500E-7	6.800397E-4
1.197000E-7	7.074469E-4
1.197500E-7	6.800397E-4
1.198000E-7	6.868915E-4
1.198500E-7	6.886044E-4
1.199000E-7	7.091598E-4
1.199500E-7	7.023080E-4
1.200000E-7	6.868915E-4
1.200500E-7	6.526325E-4
1.201000E-7	5.978181E-4
1.201500E-7	5.412907E-4
1.202000E-7	4.796245E-4
1.202500E-7	4.350878E-4
1.203000E-7	3.717087E-4
1.203500E-7	3.186072E-4
1.204000E-7	2.740705E-4
1.204500E-7	2.363856E-4
1.205000E-7	2.124043E-4
1.205500E-7	1.832842E-4
1.206000E-7	1.901360E-4
1.206500E-7	2.535151E-4
1.207000E-7	2.877741E-4
1.207500E-7	3.854123E-4
1.208000E-7	4.779116E-4
1.208500E-7	5.738368E-4
1.209000E-7	6.629102E-4
1.209500E-7	7.674001E-4
1.210000E-7	8.461958E-4
1.210500E-7	9.198527E-4
1.211000E-7	9.626764E-4
1.211500E-7	9.900836E-4
1.212000E-7	9.643894E-4
1.212500E-7	9.575376E-4
1.213000E-7	9.164268E-4
1.213500E-7	8.513347E-4
1.214000E-7	7.656872E-4
1.214500E-7	6.834656E-4
1.215000E-7	6.029569E-4
1.215500E-7	5.464296E-4
1.216000E-7	5.070317E-4
1.216500E-7	4.967540E-4
1.217000E-7	5.361519E-4
1.217500E-7	5.961051E-4
1.218000E-7	6.731879E-4
1.218500E-7	7.965203E-4
1.219000E-7	9.352692E-4
1.219500E-7	1.080870E-3
1.220000E-7	1.207628E-3
1.220500E-7	1.327535E-3
1.221000E-7	1.408043E-3
1.221500E-7	1.454293E-3
1.222000E-7	1.447441E-3
1.222500E-7	1.380636E-3
1.223000E-7	1.272720E-3
1.223500E-7	1.127120E-3
1.224000E-7	9.404081E-4
1.224500E-7	7.845296E-4
1.225000E-7	6.080958E-4
1.225500E-7	4.950411E-4
1.226000E-7	3.802734E-4
1.226500E-7	3.151813E-4
1.227000E-7	2.774964E-4
1.227500E-7	3.049036E-4
1.228000E-7	3.648569E-4
1.228500E-7	4.710598E-4
1.229000E-7	6.029569E-4
1.229500E-7	7.142987E-4
1.230000E-7	8.170757E-4
1.230500E-7	9.284174E-4
1.231000E-7	1.002074E-3
1.231500E-7	1.056889E-3
1.232000E-7	1.043185E-3
1.232500E-7	1.003787E-3
1.233000E-7	9.455469E-4
1.233500E-7	8.753160E-4
1.234000E-7	8.444829E-4
1.234500E-7	8.222145E-4
1.235000E-7	8.085109E-4
1.235500E-7	8.307793E-4
1.236000E-7	8.770289E-4
1.236500E-7	9.438340E-4
1.237000E-7	1.019204E-3
1.237500E-7	1.084296E-3
1.238000E-7	1.161379E-3
1.238500E-7	1.250452E-3
1.239000E-7	1.282998E-3
1.239500E-7	1.248739E-3
1.240000E-7	1.195638E-3
1.240500E-7	1.092861E-3
1.241000E-7	9.558246E-4
1.241500E-7	8.136498E-4
1.242000E-7	6.697620E-4
1.242500E-7	5.430037E-4
1.243000E-7	4.350878E-4
1.243500E-7	3.699957E-4
1.244000E-7	3.494403E-4
1.244500E-7	3.631439E-4
1.245000E-7	4.436526E-4
1.245500E-7	5.138835E-4
1.246000E-7	5.789756E-4
1.246500E-7	6.629102E-4
1.247000E-7	7.348541E-4
1.247500E-7	7.811037E-4
1.248000E-7	8.050850E-4
1.248500E-7	8.119368E-4
1.249000E-7	7.742519E-4
1.249500E-7	6.971692E-4
1.250000E-7	6.457807E-4
1.250500E-7	5.875404E-4
1.251000E-7	5.464296E-4
1.251500E-7	5.241612E-4
1.252000E-7	5.190224E-4
1.252500E-7	5.070317E-4
1.253000E-7	5.018929E-4
1.253500E-7	5.087447E-4
1.254000E-7	4.796245E-4
1.254500E-7	4.624950E-4
1.255000E-7	4.727727E-4
1.255500E-7	4.693468E-4
1.256000E-7	4.436526E-4
1.256500E-7	4.419396E-4
1.257000E-7	4.179583E-4
1.257500E-7	4.008288E-4
1.258000E-7	4.162454E-4
1.258500E-7	4.470785E-4
1.259000E-7	4.659209E-4
1.259500E-7	5.121706E-4
1.260000E-7	5.686979E-4
1.260500E-7	6.269382E-4
1.261000E-7	6.903174E-4
1.261500E-7	7.451318E-4
1.262000E-7	7.913814E-4
1.262500E-7	7.965203E-4
1.263000E-7	8.324922E-4
1.263500E-7	8.650383E-4
1.264000E-7	9.267045E-4
1.264500E-7	1.008926E-3
1.265000E-7	1.077444E-3
1.265500E-7	1.135684E-3
1.266000E-7	1.199064E-3
1.266500E-7	1.214480E-3
1.267000E-7	1.216193E-3
1.267500E-7	1.187073E-3
1.268000E-7	1.125407E-3
1.268500E-7	1.029481E-3
1.269000E-7	9.472599E-4
1.269500E-7	8.256404E-4
1.270000E-7	7.280023E-4
1.270500E-7	6.320771E-4
1.271000E-7	5.635591E-4
1.271500E-7	5.053188E-4
1.272000E-7	4.796245E-4
1.272500E-7	4.950411E-4
1.273000E-7	5.310130E-4
1.273500E-7	5.738368E-4
1.274000E-7	5.961051E-4
1.274500E-7	6.115217E-4
1.275000E-7	6.320771E-4
1.275500E-7	6.611972E-4
1.276000E-7	6.646231E-4
1.276500E-7	6.457807E-4
1.277000E-7	6.355030E-4
1.277500E-7	6.320771E-4
1.278000E-7	6.372159E-4
1.278500E-7	6.337900E-4
1.279000E-7	6.389289E-4
1.279500E-7	6.680490E-4
1.280000E-7	7.057339E-4
1.280500E-7	7.691131E-4
1.281000E-7	8.085109E-4
1.281500E-7	8.479088E-4
1.282000E-7	9.147138E-4
1.282500E-7	9.438340E-4
1.283000E-7	9.386951E-4
1.283500E-7	9.027232E-4
1.284000E-7	8.324922E-4
1.284500E-7	7.245764E-4
1.285000E-7	5.721238E-4
1.285500E-7	4.025418E-4
1.286000E-7	1.815712E-4
1.286500E-7	-2.398278E-5
1.287000E-7	-2.072684E-4
1.287500E-7	-3.665728E-4
1.288000E-7	-4.710627E-4
1.288500E-7	-4.796275E-4
1.289000E-7	-4.470814E-4
1.289500E-7	-3.562951E-4
1.290000E-7	-2.226850E-4
1.290500E-7	-5.310294E-5
1.291000E-7	1.284698E-4
1.291500E-7	3.374497E-4
1.292000E-7	5.412907E-4
1.292500E-7	7.057339E-4
1.293000E-7	7.982332E-4
1.293500E-7	8.479088E-4
1.294000E-7	8.427699E-4
1.294500E-7	7.262893E-4
1.295000E-7	5.704109E-4
1.295500E-7	4.059677E-4
1.296000E-7	2.363856E-4
1.296500E-7	6.337767E-5
1.297000E-7	-8.907489E-5
1.297500E-7	-1.850001E-4
1.298000E-7	-2.329627E-4
1.298500E-7	-2.209720E-4
1.299000E-7	-1.318986E-4
1.299500E-7	-2.569573E-5
1.300000E-7	1.558770E-4
1.300500E-7	3.186072E-4
1.301000E-7	5.070317E-4
1.301500E-7	6.509195E-4
1.302000E-7	7.965203E-4
1.302500E-7	9.027232E-4
1.303000E-7	9.695282E-4
1.303500E-7	9.900836E-4
1.304000E-7	9.695282E-4
1.304500E-7	9.078620E-4
1.305000E-7	8.290663E-4
1.305500E-7	7.759649E-4
1.306000E-7	6.886044E-4
1.306500E-7	6.098087E-4
1.307000E-7	5.155965E-4
1.307500E-7	4.179583E-4
1.308000E-7	3.425885E-4
1.308500E-7	2.826353E-4
1.309000E-7	2.518022E-4
1.309500E-7	2.175432E-4
1.310000E-7	1.867101E-4
1.310500E-7	1.798583E-4
1.311000E-7	1.884230E-4
1.311500E-7	1.918489E-4
1.312000E-7	2.398115E-4
1.312500E-7	2.980518E-4
1.313000E-7	3.562921E-4
1.313500E-7	3.974029E-4
1.314000E-7	4.128195E-4
1.314500E-7	4.265231E-4
1.315000E-7	4.385137E-4
1.315500E-7	4.299490E-4
1.316000E-7	4.196713E-4
1.316500E-7	3.939770E-4
1.317000E-7	3.785605E-4
1.317500E-7	3.477274E-4
1.318000E-7	2.946259E-4
1.318500E-7	2.466633E-4
1.319000E-7	2.226820E-4
1.319500E-7	2.158302E-4
1.320000E-7	2.055525E-4
1.320500E-7	1.884230E-4
1.321000E-7	1.730065E-4
1.321500E-7	1.473122E-4
1.322000E-7	1.507381E-4
1.322500E-7	1.233309E-4
1.323000E-7	1.096273E-4
1.323500E-7	1.079144E-4
1.324000E-7	1.130532E-4
1.324500E-7	1.318957E-4
1.325000E-7	1.695806E-4
1.325500E-7	2.312468E-4
1.326000E-7	3.374497E-4
1.326500E-7	4.642080E-4
1.327000E-7	5.738368E-4
1.327500E-7	6.800397E-4
1.328000E-7	7.828167E-4
1.328500E-7	8.513347E-4
1.329000E-7	9.010102E-4
1.329500E-7	8.855937E-4
1.330000E-7	8.581865E-4
1.330500E-7	7.913814E-4
1.331000E-7	7.023080E-4
1.331500E-7	5.549943E-4
1.332000E-7	4.076806E-4
1.332500E-7	2.466633E-4
1.333000E-7	1.336086E-4
1.333500E-7	3.083162E-5
1.334000E-7	-1.370508E-5
1.334500E-7	-3.768638E-5
1.335000E-7	-2.912163E-5
1.335500E-7	-4.282524E-5
1.336000E-7	6.850316E-6
1.336500E-7	9.249782E-5
1.337000E-7	1.558770E-4
1.337500E-7	1.918489E-4
1.338000E-7	2.278209E-4
1.338500E-7	2.860612E-4
1.339000E-7	3.237461E-4
1.339500E-7	3.357367E-4
1.340000E-7	3.425885E-4
1.340500E-7	3.477274E-4
1.341000E-7	3.802734E-4
1.341500E-7	3.819864E-4
1.342000E-7	3.905511E-4
1.342500E-7	3.905511E-4
1.343000E-7	4.008288E-4
1.343500E-7	3.956900E-4
1.344000E-7	3.939770E-4
1.344500E-7	3.939770E-4
1.345000E-7	3.956900E-4
1.345500E-7	4.196713E-4
1.346000E-7	3.854123E-4
1.346500E-7	3.991159E-4
1.347000E-7	4.402267E-4
1.347500E-7	4.453655E-4
1.348000E-7	5.121706E-4
1.348500E-7	5.464296E-4
1.349000E-7	5.721238E-4
1.349500E-7	5.755497E-4
1.350000E-7	6.063828E-4
1.350500E-7	6.149476E-4
1.351000E-7	6.149476E-4
1.351500E-7	6.217994E-4
1.352000E-7	6.183735E-4
1.352500E-7	5.961051E-4
1.353000E-7	5.704109E-4
1.353500E-7	5.293001E-4
1.354000E-7	4.813375E-4
1.354500E-7	4.282360E-4
1.355000E-7	3.751346E-4
1.355500E-7	3.100425E-4
1.356000E-7	2.535151E-4
1.356500E-7	1.764324E-4
1.357000E-7	9.934962E-5
1.357500E-7	3.768342E-5
1.358000E-7	-4.625114E-5
1.358500E-7	-9.592669E-5
1.359000E-7	-1.456022E-4
1.359500E-7	-1.610188E-4
1.360000E-7	-1.764353E-4
1.360500E-7	-1.524540E-4
1.361000E-7	-1.062044E-4
1.361500E-7	-6.338064E-5
1.362000E-7	3.424416E-6
1.362500E-7	3.083162E-5
1.363000E-7	5.823882E-5
1.363500E-7	1.113403E-4
1.364000E-7	1.661547E-4
1.364500E-7	2.158302E-4
1.365000E-7	2.483763E-4
1.365500E-7	2.655058E-4
1.366000E-7	2.723576E-4
1.366500E-7	2.809223E-4
1.367000E-7	2.655058E-4
1.367500E-7	2.346727E-4
1.368000E-7	2.124043E-4
1.368500E-7	1.935619E-4
1.369000E-7	1.918489E-4
1.369500E-7	1.969878E-4
1.370000E-7	2.021266E-4
1.370500E-7	1.798583E-4
1.371000E-7	1.918489E-4
1.371500E-7	2.072655E-4
1.372000E-7	2.569410E-4
1.372500E-7	2.946259E-4
1.373000E-7	3.614310E-4
1.373500E-7	4.316619E-4
1.374000E-7	4.984670E-4
1.374500E-7	5.618461E-4
1.375000E-7	5.721238E-4
1.375500E-7	5.464296E-4
1.376000E-7	5.190224E-4
1.376500E-7	4.607821E-4
1.377000E-7	3.905511E-4
1.377500E-7	2.997648E-4
1.378000E-7	1.918489E-4
1.378500E-7	9.078487E-5
1.379000E-7	-2.398278E-5
1.379500E-7	-1.113432E-4
1.380000E-7	-2.072684E-4
1.380500E-7	-3.014807E-4
1.381000E-7	-3.665728E-4
1.381500E-7	-4.093965E-4
1.382000E-7	-4.162483E-4
1.382500E-7	-4.642109E-4
1.383000E-7	-4.659239E-4
1.383500E-7	-4.487944E-4
1.384000E-7	-4.059706E-4
1.384500E-7	-3.768505E-4
1.385000E-7	-3.511562E-4
1.385500E-7	-2.946289E-4
1.386000E-7	-2.261109E-4
1.386500E-7	-1.456022E-4
1.387000E-7	-6.338064E-5
1.387500E-7	4.282227E-5
1.388000E-7	1.404604E-4
1.388500E-7	2.398115E-4
1.389000E-7	3.134684E-4
1.389500E-7	3.562921E-4
1.390000E-7	3.631439E-4
1.390500E-7	3.443015E-4
1.391000E-7	3.117554E-4
1.391500E-7	2.483763E-4
1.392000E-7	1.627288E-4
1.392500E-7	5.995177E-5
1.393000E-7	-5.995474E-5
1.393500E-7	-1.644447E-4
1.394000E-7	-2.980548E-4
1.394500E-7	-3.734246E-4
1.395000E-7	-4.231001E-4
1.395500E-7	-4.282390E-4
1.396000E-7	-3.888411E-4
1.396500E-7	-3.443044E-4
1.397000E-7	-2.620828E-4
1.397500E-7	-1.935648E-4
1.398000E-7	-1.216209E-4
1.398500E-7	-2.569573E-5
1.399000E-7	4.282227E-5
1.399500E-7	5.995177E-5
1.400000E-7	4.624817E-5
1.400500E-7	4.796112E-5
1.401000E-7	1.884097E-5
1.401500E-7	-5.140334E-6
1.402000E-7	-2.398278E-5
1.402500E-7	1.711466E-6
1.403000E-7	5.137366E-6
1.403500E-7	3.425752E-5
1.404000E-7	9.421077E-5
1.404500E-7	2.021266E-4
1.405000E-7	2.946259E-4
1.405500E-7	4.059677E-4
1.406000E-7	5.258742E-4
1.406500E-7	6.269382E-4
1.407000E-7	6.920303E-4
1.407500E-7	7.536965E-4
1.408000E-7	7.896685E-4
1.408500E-7	7.862426E-4
1.409000E-7	7.091598E-4
1.409500E-7	5.926792E-4
1.410000E-7	4.573562E-4
1.410500E-7	3.066166E-4
1.411000E-7	1.353216E-4
1.411500E-7	-1.370508E-5
1.412000E-7	-1.233339E-4
1.412500E-7	-2.089814E-4
1.413000E-7	-2.312497E-4
1.413500E-7	-1.969907E-4
1.414000E-7	-1.593058E-4
1.414500E-7	-3.768638E-5
1.415000E-7	8.907192E-5
1.415500E-7	2.483763E-4
1.416000E-7	3.956900E-4
1.416500E-7	5.909663E-4
1.417000E-7	7.502706E-4
1.417500E-7	9.095750E-4
1.418000E-7	1.008926E-3
1.418500E-7	1.089435E-3
1.419000E-7	1.106564E-3
1.419500E-7	1.106564E-3
1.420000E-7	1.068879E-3
1.420500E-7	9.883707E-4
1.421000E-7	9.010102E-4
1.421500E-7	7.622613E-4
1.422000E-7	6.012440E-4
1.422500E-7	4.111065E-4
1.423000E-7	2.655058E-4
1.423500E-7	1.267568E-4
1.424000E-7	-1.370508E-5
1.424500E-7	-1.370375E-4
1.425000E-7	-2.089814E-4
1.425500E-7	-2.774994E-4
1.426000E-7	-3.306008E-4
1.426500E-7	-3.271749E-4
1.427000E-7	-3.014807E-4
1.427500E-7	-2.500922E-4
1.428000E-7	-1.695835E-4
1.428500E-7	-7.708424E-5
1.429000E-7	-1.884393E-5
1.429500E-7	4.796112E-5
1.430000E-7	9.078487E-5
1.430500E-7	1.130532E-4
1.431000E-7	1.044885E-4
1.431500E-7	7.879422E-5
1.432000E-7	4.110932E-5
1.432500E-7	1.884097E-5
1.433000E-7	-1.483841E-9
1.433500E-7	-1.714434E-6
1.434000E-7	1.027622E-5
1.434500E-7	2.569277E-5
1.435000E-7	7.879422E-5
1.435500E-7	1.455993E-4
1.436000E-7	1.849971E-4
1.436500E-7	2.449504E-4
1.437000E-7	2.997648E-4
1.437500E-7	3.528662E-4
1.438000E-7	4.093936E-4
1.438500E-7	4.505044E-4
1.439000E-7	4.847634E-4
1.439500E-7	5.104576E-4
1.440000E-7	4.813375E-4
1.440500E-7	4.385137E-4
1.441000E-7	3.802734E-4
1.441500E-7	3.802734E-4
1.442000E-7	3.254590E-4
1.442500E-7	2.706446E-4
1.443000E-7	2.329597E-4
1.443500E-7	1.798583E-4
1.444000E-7	9.763667E-5
1.444500E-7	4.967407E-5
1.445000E-7	-1.370508E-5
1.445500E-7	-8.564899E-5
1.446000E-7	-1.490281E-4
1.446500E-7	-1.781483E-4
1.447000E-7	-1.832871E-4
1.447500E-7	-1.832871E-4
1.448000E-7	-1.318986E-4
1.448500E-7	-6.851949E-5
1.449000E-7	-2.569573E-5
1.449500E-7	2.397982E-5
1.450000E-7	6.509062E-5
1.450500E-7	1.079144E-4
1.451000E-7	1.267568E-4
1.451500E-7	1.233309E-4
1.452000E-7	1.044885E-4
1.452500E-7	7.022947E-5
1.453000E-7	1.027622E-5
1.453500E-7	-3.597343E-5
1.454000E-7	-6.338064E-5
1.454500E-7	-4.967704E-5
1.455000E-7	-2.912163E-5
1.455500E-7	6.337767E-5
1.456000E-7	1.524511E-4
1.456500E-7	2.912000E-4
1.457000E-7	4.265231E-4
1.457500E-7	5.635591E-4
1.458000E-7	6.252253E-4
1.458500E-7	6.731879E-4
1.459000E-7	6.817526E-4
1.459500E-7	6.629102E-4
1.460000E-7	6.080958E-4
1.460500E-7	5.053188E-4
1.461000E-7	3.785605E-4
1.461500E-7	2.723576E-4
1.462000E-7	1.747194E-4
1.462500E-7	7.708127E-5
1.463000E-7	5.137366E-6
1.463500E-7	-6.509359E-5
1.464000E-7	-9.421374E-5
1.464500E-7	-1.353245E-4
1.465000E-7	-1.473152E-4
1.465500E-7	-1.610188E-4
1.466000E-7	-1.507411E-4
1.466500E-7	-1.541670E-4
1.467000E-7	-1.284727E-4
1.467500E-7	-1.318986E-4
1.468000E-7	-1.044914E-4
1.468500E-7	-1.250468E-4
1.469000E-7	-1.438893E-4
1.469500E-7	-1.661576E-4
1.470000E-7	-1.901389E-4
1.470500E-7	-2.038425E-4
1.471000E-7	-2.209720E-4
1.471500E-7	-2.535181E-4
1.472000E-7	-2.586569E-4
1.472500E-7	-2.603699E-4
1.473000E-7	-2.175461E-4
1.473500E-7	-1.644447E-4
1.474000E-7	-6.851949E-5
1.474500E-7	5.995177E-5
1.475000E-7	2.021266E-4
1.475500E-7	3.682828E-4
1.476000E-7	5.207353E-4
1.476500E-7	6.286512E-4
1.477000E-7	7.211505E-4
1.477500E-7	7.708260E-4
1.478000E-7	8.016591E-4
1.478500E-7	7.434188E-4
1.479000E-7	6.406418E-4
1.479500E-7	4.659209E-4
1.480000E-7	3.254590E-4
1.480500E-7	1.318957E-4
1.481000E-7	3.424416E-6
1.481500E-7	-9.763964E-5
1.482000E-7	-1.781483E-4
1.482500E-7	-2.295368E-4
1.483000E-7	-2.449533E-4
1.483500E-7	-2.072684E-4
1.484000E-7	-1.558799E-4
1.484500E-7	-9.250079E-5
1.485000E-7	-3.427384E-6
1.485500E-7	8.907192E-5
1.486000E-7	1.593029E-4
1.486500E-7	2.243950E-4
1.487000E-7	2.672187E-4
1.487500E-7	2.860612E-4
1.488000E-7	2.774964E-4
1.488500E-7	2.757835E-4
1.489000E-7	2.500892E-4
1.489500E-7	2.261079E-4
1.490000E-7	1.747194E-4
1.490500E-7	1.301827E-4
1.491000E-7	5.652587E-5
1.491500E-7	2.397982E-5
1.492000E-7	6.850316E-6
1.492500E-7	-2.740868E-5
1.493000E-7	-5.995474E-5
1.493500E-7	-1.113432E-4
1.494000E-7	-1.250468E-4
1.494500E-7	-1.318986E-4
1.495000E-7	-1.353245E-4
1.495500E-7	-1.456022E-4
1.496000E-7	-1.301857E-4
1.496500E-7	-1.216209E-4
1.497000E-7	-1.096303E-4
1.497500E-7	-9.763964E-5
1.498000E-7	-6.680654E-5
1.498500E-7	-4.111229E-5
1.499000E-7	-1.370508E-5
1.499500E-7	5.137366E-6
1.500000E-7	1.712802E-5
1.500500E-7	5.995177E-5
1.501000E-7	1.199050E-4
1.501500E-7	1.455993E-4
1.502000E-7	1.987007E-4
1.502500E-7	2.295338E-4
1.503000E-7	2.346727E-4
1.503500E-7	2.175432E-4
1.504000E-7	1.832842E-4
1.504500E-7	1.438863E-4
1.505000E-7	8.222012E-5
1.505500E-7	5.652587E-5
1.506000E-7	2.397982E-5
1.506500E-7	4.282227E-5
1.507000E-7	9.934962E-5
1.507500E-7	1.987007E-4
1.508000E-7	2.809223E-4
1.508500E-7	3.734216E-4
1.509000E-7	4.727727E-4
1.509500E-7	5.549943E-4
1.510000E-7	6.303641E-4
1.510500E-7	6.886044E-4
1.511000E-7	7.245764E-4
1.511500E-7	7.468447E-4
1.512000E-7	7.125857E-4
1.512500E-7	6.697620E-4
1.513000E-7	5.909663E-4
1.513500E-7	4.761986E-4
1.514000E-7	3.391626E-4
1.514500E-7	1.849971E-4
1.515000E-7	8.222012E-5
1.515500E-7	-3.426048E-5
1.516000E-7	-9.592669E-5
1.516500E-7	-1.096303E-4
1.517000E-7	-1.250468E-4
1.517500E-7	-1.010655E-4
1.518000E-7	-5.481589E-5
1.518500E-7	-6.853284E-6
1.519000E-7	8.393307E-5
1.519500E-7	1.918489E-4
1.520000E-7	3.031907E-4
1.520500E-7	3.871252E-4
1.521000E-7	4.539303E-4
1.521500E-7	5.036058E-4
1.522000E-7	4.933281E-4
1.522500E-7	4.813375E-4
1.523000E-7	4.864763E-4
1.523500E-7	4.864763E-4
1.524000E-7	4.744857E-4
1.524500E-7	5.070317E-4
1.525000E-7	5.515684E-4
1.525500E-7	6.046699E-4
1.526000E-7	6.406418E-4
1.526500E-7	6.440677E-4
1.527000E-7	6.714749E-4
1.527500E-7	6.868915E-4
1.528000E-7	7.519836E-4
1.528500E-7	7.879555E-4
1.529000E-7	8.256404E-4
1.529500E-7	8.804548E-4
1.530000E-7	9.232786E-4
1.530500E-7	9.798059E-4
1.531000E-7	1.036333E-3
1.531500E-7	1.091148E-3
1.532000E-7	1.116842E-3
1.532500E-7	1.130546E-3
1.533000E-7	1.121981E-3
1.533500E-7	1.070592E-3
1.534000E-7	9.883707E-4
1.534500E-7	8.855937E-4
1.535000E-7	7.948073E-4
1.535500E-7	7.023080E-4
1.536000E-7	5.549943E-4
1.536500E-7	4.282360E-4
1.537000E-7	3.083295E-4
1.537500E-7	2.004137E-4
1.538000E-7	7.879422E-5
1.538500E-7	1.027622E-5
1.539000E-7	-6.509359E-5
1.539500E-7	-1.113432E-4
1.540000E-7	-1.336116E-4
1.540500E-7	-1.593058E-4
1.541000E-7	-1.473152E-4
1.541500E-7	-1.147691E-4
1.542000E-7	-7.879719E-5
1.542500E-7	-2.226983E-5
1.543000E-7	9.249782E-5
1.543500E-7	1.935619E-4
1.544000E-7	2.997648E-4
1.544500E-7	3.991159E-4
1.545000E-7	4.642080E-4
1.545500E-7	5.241612E-4
1.546000E-7	5.704109E-4
1.546500E-7	6.115217E-4
1.547000E-7	6.217994E-4
1.547500E-7	6.217994E-4
1.548000E-7	5.858274E-4
1.548500E-7	5.686979E-4
1.549000E-7	5.584202E-4
1.549500E-7	5.275871E-4
1.550000E-7	4.984670E-4
1.550500E-7	4.847634E-4
1.551000E-7	4.590691E-4
1.551500E-7	4.145324E-4
1.552000E-7	3.974029E-4
1.552500E-7	3.939770E-4
1.553000E-7	3.648569E-4
1.553500E-7	3.648569E-4
1.554000E-7	3.597180E-4
1.554500E-7	3.854123E-4
1.555000E-7	4.179583E-4
1.555500E-7	4.642080E-4
1.556000E-7	4.796245E-4
1.556500E-7	5.395778E-4
1.557000E-7	5.447166E-4
1.557500E-7	5.738368E-4
1.558000E-7	6.200864E-4
1.558500E-7	6.372159E-4
1.559000E-7	6.098087E-4
1.559500E-7	5.635591E-4
1.560000E-7	4.933281E-4
1.560500E-7	4.025418E-4
1.561000E-7	3.100425E-4
1.561500E-7	2.243950E-4
1.562000E-7	1.661547E-4
1.562500E-7	1.113403E-4
1.563000E-7	9.763667E-5
1.563500E-7	8.393307E-5
1.564000E-7	1.027755E-4
1.564500E-7	1.181921E-4
1.565000E-7	1.130532E-4
1.565500E-7	1.455993E-4
1.566000E-7	1.558770E-4
1.566500E-7	1.627288E-4
1.567000E-7	1.918489E-4
1.567500E-7	2.089784E-4
1.568000E-7	2.106914E-4
1.568500E-7	1.849971E-4
1.569000E-7	1.730065E-4
1.569500E-7	1.181921E-4
1.570000E-7	9.421077E-5
1.570500E-7	5.652587E-5
1.571000E-7	-1.199213E-5
1.571500E-7	-3.083458E-5
1.572000E-7	-4.796409E-5
1.572500E-7	-5.481589E-5
1.573000E-7	-5.140334E-6
1.573500E-7	2.569277E-5
1.574000E-7	4.282227E-5
1.574500E-7	1.044885E-4
1.575000E-7	1.370345E-4
1.575500E-7	1.849971E-4
1.576000E-7	2.192561E-4
1.576500E-7	2.894871E-4
1.577000E-7	3.751346E-4
1.577500E-7	4.590691E-4
1.578000E-7	5.053188E-4
1.578500E-7	5.464296E-4
1.579000E-7	5.532814E-4
1.579500E-7	5.395778E-4
1.580000E-7	4.967540E-4
1.580500E-7	4.676339E-4
1.581000E-7	4.522173E-4
1.581500E-7	4.145324E-4
1.582000E-7	3.854123E-4
1.582500E-7	3.717087E-4
1.583000E-7	3.323108E-4
1.583500E-7	2.809223E-4
1.584000E-7	2.603669E-4
1.584500E-7	2.329597E-4
1.585000E-7	1.987007E-4
1.585500E-7	2.261079E-4
1.586000E-7	2.826353E-4
1.586500E-7	3.305979E-4
1.587000E-7	3.922641E-4
1.587500E-7	4.676339E-4
1.588000E-7	5.310130E-4
1.588500E-7	5.943922E-4
1.589000E-7	6.286512E-4
1.589500E-7	6.526325E-4
1.590000E-7	6.646231E-4
1.590500E-7	6.029569E-4
1.591000E-7	5.087447E-4
1.591500E-7	3.974029E-4
1.592000E-7	2.466633E-4
1.592500E-7	1.181921E-4
1.593000E-7	2.740572E-5
1.593500E-7	-5.138999E-5
1.594000E-7	-1.199080E-4
1.594500E-7	-1.233339E-4
1.595000E-7	-8.222309E-5
1.595500E-7	-2.569573E-5
1.596000E-7	3.768342E-5
1.596500E-7	9.763667E-5
1.597000E-7	1.558770E-4
1.597500E-7	2.175432E-4
1.598000E-7	2.466633E-4
1.598500E-7	2.466633E-4
1.599000E-7	2.586540E-4
1.599500E-7	2.106914E-4
1.600000E-7	1.901360E-4
1.600500E-7	1.747194E-4
1.601000E-7	1.455993E-4
1.601500E-7	1.181921E-4
1.602000E-7	1.181921E-4
1.602500E-7	1.353216E-4
1.603000E-7	1.884230E-4
1.603500E-7	2.209691E-4
1.604000E-7	2.466633E-4
1.604500E-7	2.894871E-4
1.605000E-7	3.186072E-4
1.605500E-7	3.374497E-4
1.606000E-7	3.323108E-4
1.606500E-7	3.014777E-4
1.607000E-7	2.535151E-4
1.607500E-7	2.124043E-4
1.608000E-7	1.387475E-4
1.608500E-7	6.680357E-5
1.609000E-7	2.055392E-5
1.609500E-7	-3.427384E-6
1.610000E-7	-4.111229E-5
1.610500E-7	-5.824179E-5
1.611000E-7	-5.481589E-5
1.611500E-7	-6.338064E-5
1.612000E-7	-1.199213E-5
1.612500E-7	3.768342E-5
1.613000E-7	5.995177E-5
1.613500E-7	1.010626E-4
1.614000E-7	1.318957E-4
1.614500E-7	1.216180E-4
1.615000E-7	1.507381E-4
1.615500E-7	1.661547E-4
1.616000E-7	1.473122E-4
1.616500E-7	1.284698E-4
1.617000E-7	1.284698E-4
1.617500E-7	1.044885E-4
1.618000E-7	6.166472E-5
1.618500E-7	2.397982E-5
1.619000E-7	-2.569573E-5
1.619500E-7	-7.194539E-5
1.620000E-7	-1.044914E-4
1.620500E-7	-9.592669E-5
1.621000E-7	-1.541803E-5
1.621500E-7	3.597047E-5
1.622000E-7	9.763667E-5
1.622500E-7	1.593029E-4
1.623000E-7	2.620799E-4
1.623500E-7	3.682828E-4
1.624000E-7	4.573562E-4
1.624500E-7	5.258742E-4
1.625000E-7	5.789756E-4
1.625500E-7	6.012440E-4
1.626000E-7	5.378648E-4
1.626500E-7	4.487914E-4
1.627000E-7	3.460144E-4
1.627500E-7	2.655058E-4
1.628000E-7	1.181921E-4
1.628500E-7	2.569277E-5
1.629000E-7	-5.995474E-5
1.629500E-7	-1.147691E-4
1.630000E-7	-1.216209E-4
1.630500E-7	-1.062044E-4
1.631000E-7	-5.481589E-5
1.631500E-7	3.254457E-5
1.632000E-7	1.593029E-4
1.632500E-7	2.946259E-4
1.633000E-7	4.453655E-4
1.633500E-7	5.824015E-4
1.634000E-7	7.280023E-4
1.634500E-7	8.684642E-4
1.635000E-7	9.815189E-4
1.635500E-7	1.077444E-3
1.636000E-7	1.133971E-3
1.636500E-7	1.180221E-3
1.637000E-7	1.195638E-3
1.637500E-7	1.157953E-3
1.638000E-7	1.091148E-3
1.638500E-7	1.015778E-3
1.639000E-7	9.609635E-4
1.639500E-7	9.044361E-4
1.640000E-7	8.222145E-4
1.640500E-7	7.434188E-4
1.641000E-7	6.731879E-4
1.641500E-7	6.320771E-4
1.642000E-7	6.098087E-4
1.642500E-7	6.183735E-4
1.643000E-7	6.183735E-4
1.643500E-7	6.714749E-4
1.644000E-7	7.125857E-4
1.644500E-7	7.502706E-4
1.645000E-7	7.708260E-4
1.645500E-7	7.656872E-4
1.646000E-7	7.399929E-4
1.646500E-7	7.142987E-4
1.647000E-7	6.766138E-4
1.647500E-7	6.183735E-4
1.648000E-7	5.704109E-4
1.648500E-7	5.532814E-4
1.649000E-7	5.018929E-4
1.649500E-7	4.830504E-4
1.650000E-7	4.779116E-4
1.650500E-7	5.001799E-4
1.651000E-7	5.173094E-4
1.651500E-7	5.395778E-4
1.652000E-7	5.704109E-4
1.652500E-7	5.824015E-4
1.653000E-7	5.841145E-4
1.653500E-7	5.738368E-4
1.654000E-7	5.926792E-4
1.654500E-7	5.635591E-4
1.655000E-7	5.395778E-4
1.655500E-7	5.018929E-4
1.656000E-7	4.316619E-4
1.656500E-7	4.265231E-4
1.657000E-7	4.230972E-4
1.657500E-7	4.265231E-4
1.658000E-7	4.230972E-4
1.658500E-7	4.607821E-4
1.659000E-7	5.070317E-4
1.659500E-7	5.584202E-4
1.660000E-7	6.783267E-4
1.660500E-7	8.016591E-4
1.661000E-7	9.181397E-4
1.661500E-7	1.015778E-3
1.662000E-7	1.130546E-3
1.662500E-7	1.226471E-3
1.663000E-7	1.281285E-3
1.663500E-7	1.324109E-3
1.664000E-7	1.315544E-3
1.664500E-7	1.265869E-3
1.665000E-7	1.190499E-3
1.665500E-7	1.099712E-3
1.666000E-7	9.969354E-4
1.666500E-7	8.650383E-4
1.667000E-7	7.674001E-4
1.667500E-7	7.023080E-4
1.668000E-7	6.714749E-4
1.668500E-7	6.834656E-4
1.669000E-7	7.434188E-4
1.669500E-7	8.067980E-4
1.670000E-7	8.753160E-4
1.670500E-7	9.078620E-4
1.671000E-7	9.404081E-4
1.671500E-7	9.249915E-4
1.672000E-7	8.736030E-4
1.672500E-7	7.639742E-4
1.673000E-7	6.337900E-4
1.673500E-7	4.385137E-4
1.674000E-7	2.449504E-4
1.674500E-7	6.509062E-5
1.675000E-7	-1.010655E-4
1.675500E-7	-2.483792E-4
1.676000E-7	-3.511562E-4
1.676500E-7	-3.871282E-4
1.677000E-7	-3.699987E-4
1.677500E-7	-3.374526E-4
1.678000E-7	-2.569440E-4
1.678500E-7	-1.661576E-4
1.679000E-7	-6.509359E-5
1.679500E-7	2.569277E-5
1.680000E-7	9.763667E-5
1.680500E-7	1.181921E-4
1.681000E-7	1.370345E-4
1.681500E-7	1.747194E-4
1.682000E-7	1.781453E-4
1.682500E-7	1.935619E-4
1.683000E-7	1.969878E-4
1.683500E-7	2.209691E-4
1.684000E-7	2.689317E-4
1.684500E-7	2.997648E-4
1.685000E-7	3.254590E-4
1.685500E-7	3.460144E-4
1.686000E-7	3.956900E-4
1.686500E-7	4.693468E-4
1.687000E-7	5.258742E-4
1.687500E-7	5.669850E-4
1.688000E-7	5.841145E-4
1.688500E-7	6.303641E-4
1.689000E-7	6.440677E-4
1.689500E-7	6.303641E-4
1.690000E-7	6.183735E-4
1.690500E-7	5.841145E-4
1.691000E-7	5.532814E-4
1.691500E-7	5.395778E-4
1.692000E-7	5.464296E-4
1.692500E-7	5.601332E-4
1.693000E-7	5.721238E-4
1.693500E-7	6.098087E-4
1.694000E-7	6.577713E-4
1.694500E-7	6.920303E-4
1.695000E-7	7.262893E-4
1.695500E-7	7.913814E-4
1.696000E-7	8.256404E-4
1.696500E-7	8.975843E-4
1.697000E-7	9.643894E-4
1.697500E-7	1.010639E-3
1.698000E-7	1.089435E-3
1.698500E-7	1.156240E-3
1.699000E-7	1.178508E-3
1.699500E-7	1.178508E-3
1.700000E-7	1.192212E-3
1.700500E-7	1.200777E-3
1.701000E-7	1.187073E-3
1.701500E-7	1.163092E-3
1.702000E-7	1.091148E-3
1.702500E-7	9.883707E-4
1.703000E-7	8.753160E-4
1.703500E-7	7.057339E-4
1.704000E-7	5.704109E-4
1.704500E-7	4.316619E-4
1.705000E-7	2.929130E-4
1.705500E-7	1.867101E-4
1.706000E-7	1.164791E-4
1.706500E-7	8.735897E-5
1.707000E-7	9.592372E-5
1.707500E-7	1.627288E-4
1.708000E-7	2.278209E-4
1.708500E-7	2.655058E-4
1.709000E-7	2.877741E-4
1.709500E-7	3.203202E-4
1.710000E-7	3.186072E-4
1.710500E-7	2.569410E-4
1.711000E-7	2.175432E-4
1.711500E-7	1.730065E-4
1.712000E-7	1.284698E-4
1.712500E-7	1.216180E-4
1.713000E-7	1.301827E-4
1.713500E-7	1.644417E-4
1.714000E-7	2.295338E-4
1.714500E-7	3.049036E-4
1.715000E-7	3.939770E-4
1.715500E-7	4.864763E-4
1.716000E-7	5.618461E-4
1.716500E-7	5.686979E-4
1.717000E-7	5.567073E-4
1.717500E-7	4.916152E-4
1.718000E-7	4.179583E-4
1.718500E-7	3.168943E-4
1.719000E-7	2.346727E-4
1.719500E-7	1.216180E-4
1.720000E-7	2.569277E-5
1.720500E-7	-3.426048E-5
1.721000E-7	-4.625114E-5
1.721500E-7	-2.055688E-5
1.722000E-7	-3.426048E-5
1.722500E-7	1.884097E-5
1.723000E-7	8.393307E-5
1.723500E-7	1.558770E-4
1.724000E-7	2.038396E-4
1.724500E-7	2.809223E-4
1.725000E-7	3.323108E-4
1.725500E-7	3.682828E-4
1.726000E-7	4.385137E-4
1.726500E-7	5.053188E-4
1.727000E-7	5.978181E-4
1.727500E-7	6.372159E-4
1.728000E-7	7.023080E-4
1.728500E-7	7.759649E-4
1.729000E-7	8.530476E-4
1.729500E-7	9.061491E-4
1.730000E-7	9.386951E-4
1.730500E-7	9.609635E-4
1.731000E-7	9.369822E-4
1.731500E-7	8.616124E-4
1.732000E-7	7.468447E-4
1.732500E-7	6.012440E-4
1.733000E-7	4.659209E-4
1.733500E-7	3.443015E-4
1.734000E-7	2.432374E-4
1.734500E-7	1.695806E-4
1.735000E-7	1.079144E-4
1.735500E-7	1.113403E-4
1.736000E-7	1.593029E-4
1.736500E-7	2.363856E-4
1.737000E-7	3.699957E-4
1.737500E-7	5.327260E-4
1.738000E-7	6.577713E-4
1.738500E-7	7.348541E-4
1.739000E-7	7.793908E-4
1.739500E-7	7.674001E-4
1.740000E-7	7.177246E-4
1.740500E-7	6.320771E-4
1.741000E-7	5.378648E-4
1.741500E-7	4.076806E-4
1.742000E-7	2.620799E-4
1.742500E-7	2.124043E-4
1.743000E-7	2.021266E-4
1.743500E-7	2.209691E-4
1.744000E-7	3.066166E-4
1.744500E-7	4.213842E-4
1.745000E-7	5.515684E-4
1.745500E-7	7.125857E-4
1.746000E-7	8.444829E-4
1.746500E-7	9.815189E-4
1.747000E-7	1.089435E-3
1.747500E-7	1.185360E-3
1.748000E-7	1.223045E-3
1.748500E-7	1.269295E-3
1.749000E-7	1.284711E-3
1.749500E-7	1.289850E-3
1.750000E-7	1.262443E-3
1.750500E-7	1.267582E-3
1.751000E-7	1.253878E-3
1.751500E-7	1.259017E-3
1.752000E-7	1.269295E-3
1.752500E-7	1.243600E-3
1.753000E-7	1.235036E-3
1.753500E-7	1.211054E-3
1.754000E-7	1.169943E-3
1.754500E-7	1.128833E-3
1.755000E-7	1.094574E-3
1.755500E-7	1.051750E-3
1.756000E-7	1.012352E-3
1.756500E-7	9.832318E-4
1.757000E-7	9.626764E-4
1.757500E-7	9.421210E-4
1.758000E-7	9.249915E-4
1.758500E-7	9.147138E-4
1.759000E-7	9.112879E-4
1.759500E-7	9.078620E-4
1.760000E-7	9.010102E-4
1.760500E-7	9.112879E-4
1.761000E-7	9.232786E-4
1.761500E-7	9.078620E-4
1.762000E-7	9.249915E-4
1.762500E-7	9.455469E-4
1.763000E-7	9.832318E-4
1.763500E-7	1.005500E-3
1.764000E-7	1.044898E-3
1.764500E-7	1.127120E-3
1.765000E-7	1.181934E-3
1.765500E-7	1.247026E-3
1.766000E-7	1.271007E-3
1.766500E-7	1.317257E-3
1.767000E-7	1.313831E-3
1.767500E-7	1.236748E-3
1.768000E-7	1.109990E-3
1.768500E-7	9.780930E-4
1.769000E-7	8.050850E-4
1.769500E-7	6.149476E-4
1.770000E-7	4.813375E-4
1.770500E-7	3.477274E-4
1.771000E-7	2.415245E-4
1.771500E-7	1.849971E-4
1.772000E-7	1.336086E-4
1.772500E-7	1.438863E-4
1.773000E-7	1.832842E-4
1.773500E-7	2.586540E-4
1.774000E-7	3.443015E-4
1.774500E-7	4.368008E-4
1.775000E-7	5.789756E-4
1.775500E-7	7.331411E-4
1.776000E-7	8.684642E-4
1.776500E-7	9.986484E-4
1.777000E-7	1.063740E-3
1.777500E-7	1.159666E-3
1.778000E-7	1.238461E-3
1.778500E-7	1.257304E-3
1.779000E-7	1.255591E-3
1.779500E-7	1.241887E-3
1.780000E-7	1.212767E-3
1.780500E-7	1.142536E-3
1.781000E-7	1.084296E-3
1.781500E-7	1.024343E-3
1.782000E-7	9.780930E-4
1.782500E-7	9.609635E-4
1.783000E-7	9.592505E-4
1.783500E-7	9.643894E-4
1.784000E-7	1.019204E-3
1.784500E-7	1.046611E-3
1.785000E-7	1.092861E-3
1.785500E-7	1.113416E-3
1.786000E-7	1.133971E-3
1.786500E-7	1.161379E-3
1.787000E-7	1.120268E-3
1.787500E-7	1.062028E-3
1.788000E-7	9.900836E-4
1.788500E-7	8.958714E-4
1.789000E-7	8.085109E-4
1.789500E-7	7.108728E-4
1.790000E-7	5.926792E-4
1.790500E-7	4.933281E-4
1.791000E-7	4.487914E-4
1.791500E-7	4.265231E-4
1.792000E-7	3.905511E-4
1.792500E-7	3.562921E-4
1.793000E-7	3.888382E-4
1.793500E-7	4.093936E-4
1.794000E-7	4.385137E-4
1.794500E-7	5.190224E-4
1.795000E-7	5.961051E-4
1.795500E-7	6.594843E-4
1.796000E-7	6.851785E-4
1.796500E-7	7.023080E-4
1.797000E-7	6.988821E-4
1.797500E-7	6.697620E-4
1.798000E-7	6.149476E-4
1.798500E-7	5.669850E-4
1.799000E-7	5.155965E-4
1.799500E-7	4.967540E-4
1.800000E-7	5.087447E-4
1.800500E-7	5.430037E-4
1.801000E-7	5.892533E-4
1.801500E-7	6.800397E-4
1.802000E-7	7.519836E-4
1.802500E-7	8.324922E-4
1.803000E-7	9.249915E-4
1.803500E-7	9.729541E-4
1.804000E-7	9.986484E-4
1.804500E-7	9.986484E-4
1.805000E-7	9.541117E-4
1.805500E-7	8.616124E-4
1.806000E-7	7.776778E-4
1.806500E-7	6.714749E-4
1.807000E-7	5.772627E-4
1.807500E-7	4.950411E-4
1.808000E-7	4.385137E-4
1.808500E-7	4.453655E-4
1.809000E-7	4.761986E-4
1.809500E-7	5.258742E-4
1.810000E-7	5.978181E-4
1.810500E-7	6.646231E-4
1.811000E-7	7.177246E-4
1.811500E-7	7.605483E-4
1.812000E-7	7.674001E-4
1.812500E-7	7.519836E-4
1.813000E-7	7.331411E-4
1.813500E-7	6.406418E-4
1.814000E-7	5.515684E-4
1.814500E-7	4.710598E-4
1.815000E-7	3.905511E-4
1.815500E-7	3.254590E-4
1.816000E-7	2.860612E-4
1.816500E-7	2.552281E-4
1.817000E-7	2.843482E-4
1.817500E-7	3.374497E-4
1.818000E-7	4.162454E-4
1.818500E-7	5.138835E-4
1.819000E-7	5.909663E-4
1.819500E-7	6.389289E-4
1.820000E-7	6.920303E-4
1.820500E-7	7.262893E-4
1.821000E-7	7.142987E-4
1.821500E-7	7.040210E-4
1.822000E-7	6.731879E-4
1.822500E-7	6.200864E-4
1.823000E-7	5.498555E-4
1.823500E-7	4.573562E-4
1.824000E-7	4.076806E-4
1.824500E-7	3.545792E-4
1.825000E-7	3.100425E-4
1.825500E-7	3.305979E-4
1.826000E-7	3.528662E-4
1.826500E-7	3.751346E-4
1.827000E-7	4.025418E-4
1.827500E-7	4.539303E-4
1.828000E-7	4.830504E-4
1.828500E-7	5.104576E-4
1.829000E-7	5.070317E-4
1.829500E-7	5.104576E-4
1.830000E-7	5.121706E-4
1.830500E-7	5.806886E-4
1.831000E-7	6.543454E-4
1.831500E-7	7.434188E-4
1.832000E-7	8.359181E-4
1.832500E-7	9.078620E-4
1.833000E-7	9.849448E-4
1.833500E-7	1.022630E-3
1.834000E-7	1.065453E-3
1.834500E-7	1.077444E-3
1.835000E-7	1.089435E-3
1.835500E-7	1.032907E-3
1.836000E-7	9.695282E-4
1.836500E-7	8.667512E-4
1.837000E-7	7.845296E-4
1.837500E-7	7.108728E-4
1.838000E-7	6.663361E-4
1.838500E-7	6.389289E-4
1.839000E-7	6.046699E-4
1.839500E-7	5.618461E-4
1.840000E-7	5.532814E-4
1.840500E-7	5.481425E-4
1.841000E-7	5.241612E-4
1.841500E-7	4.984670E-4
1.842000E-7	4.676339E-4
1.842500E-7	4.710598E-4
1.843000E-7	4.316619E-4
1.843500E-7	4.213842E-4
1.844000E-7	3.871252E-4
1.844500E-7	3.956900E-4
1.845000E-7	3.888382E-4
1.845500E-7	4.196713E-4
1.846000E-7	4.813375E-4
1.846500E-7	5.652720E-4
1.847000E-7	6.389289E-4
1.847500E-7	7.280023E-4
1.848000E-7	8.205016E-4
1.848500E-7	9.215656E-4
1.849000E-7	1.014065E-3
1.849500E-7	1.067166E-3
1.850000E-7	1.152814E-3
1.850500E-7	1.221332E-3
1.851000E-7	1.282998E-3
1.851500E-7	1.356655E-3
1.852000E-7	1.450867E-3
1.852500E-7	1.512533E-3
1.853000E-7	1.593042E-3
1.853500E-7	1.659847E-3
1.854000E-7	1.671838E-3
1.854500E-7	1.683828E-3
1.855000E-7	1.646144E-3
1.855500E-7	1.557070E-3
1.856000E-7	1.401192E-3
1.856500E-7	1.240174E-3
1.857000E-7	1.044898E-3
1.857500E-7	8.718901E-4
1.858000E-7	7.519836E-4
1.858500E-7	6.509195E-4
1.859000E-7	5.841145E-4
1.859500E-7	5.430037E-4
1.860000E-7	5.772627E-4
1.860500E-7	6.372159E-4
1.861000E-7	7.314282E-4
1.861500E-7	8.444829E-4
1.862000E-7	9.592505E-4
1.862500E-7	1.053463E-3
1.863000E-7	1.144249E-3
1.863500E-7	1.183647E-3
1.864000E-7	1.204202E-3
1.864500E-7	1.132259E-3
1.865000E-7	1.074018E-3
1.865500E-7	9.746671E-4
1.866000E-7	8.873066E-4
1.866500E-7	8.273534E-4
1.867000E-7	7.862426E-4
1.867500E-7	7.468447E-4
1.868000E-7	7.314282E-4
1.868500E-7	7.434188E-4
1.869000E-7	8.102239E-4
1.869500E-7	8.513347E-4
1.870000E-7	9.010102E-4
1.870500E-7	9.575376E-4
1.871000E-7	1.003787E-3
1.871500E-7	9.832318E-4
1.872000E-7	9.746671E-4
1.872500E-7	9.541117E-4
1.873000E-7	9.181397E-4
1.873500E-7	9.078620E-4
1.874000E-7	8.992973E-4
1.874500E-7	9.112879E-4
1.875000E-7	9.352692E-4
1.875500E-7	8.992973E-4
1.876000E-7	8.992973E-4
1.876500E-7	8.753160E-4
1.877000E-7	8.684642E-4
1.877500E-7	8.616124E-4
1.878000E-7	8.598994E-4
1.878500E-7	8.770289E-4
1.879000E-7	8.924455E-4
1.879500E-7	9.301304E-4
1.880000E-7	9.626764E-4
1.880500E-7	1.046611E-3
1.881000E-7	1.164805E-3
1.881500E-7	1.277859E-3
1.882000E-7	1.416608E-3
1.882500E-7	1.536515E-3
1.883000E-7	1.682115E-3
1.883500E-7	1.802022E-3
1.884000E-7	1.894521E-3
1.884500E-7	1.935632E-3
1.885000E-7	1.932206E-3
1.885500E-7	1.925354E-3
1.886000E-7	1.844846E-3
1.886500E-7	1.748921E-3
1.887000E-7	1.661560E-3
1.887500E-7	1.514246E-3
1.888000E-7	1.365220E-3
1.888500E-7	1.223045E-3
1.889000E-7	1.103138E-3
1.889500E-7	1.003787E-3
1.890000E-7	9.455469E-4
1.890500E-7	9.249915E-4
1.891000E-7	9.215656E-4
1.891500E-7	9.592505E-4
1.892000E-7	9.746671E-4
1.892500E-7	1.017491E-3
1.893000E-7	1.044898E-3
1.893500E-7	1.044898E-3
1.894000E-7	1.039759E-3
1.894500E-7	1.026056E-3
1.895000E-7	9.866577E-4
1.895500E-7	8.873066E-4
1.896000E-7	8.496217E-4
1.896500E-7	7.948073E-4
1.897000E-7	7.365670E-4
1.897500E-7	6.954562E-4
1.898000E-7	6.766138E-4
1.898500E-7	6.663361E-4
1.899000E-7	7.023080E-4
1.899500E-7	7.674001E-4
1.900000E-7	8.598994E-4
1.900500E-7	9.695282E-4
1.901000E-7	1.118555E-3
1.901500E-7	1.223045E-3
1.902000E-7	1.329248E-3
1.902500E-7	1.402905E-3
1.903000E-7	1.466284E-3
1.903500E-7	1.481700E-3
1.904000E-7	1.447441E-3
1.904500E-7	1.432025E-3
1.905000E-7	1.406331E-3
1.905500E-7	1.394340E-3
1.906000E-7	1.380636E-3
1.906500E-7	1.385775E-3
1.907000E-7	1.368646E-3
1.907500E-7	1.384062E-3
1.908000E-7	1.389201E-3
1.908500E-7	1.411469E-3
1.909000E-7	1.428599E-3
1.909500E-7	1.418321E-3
1.910000E-7	1.382349E-3
1.910500E-7	1.296702E-3
1.911000E-7	1.212767E-3
1.911500E-7	1.113416E-3
1.912000E-7	1.014065E-3
1.912500E-7	9.455469E-4
1.913000E-7	8.873066E-4
1.913500E-7	8.153627E-4
1.914000E-7	7.930944E-4
1.914500E-7	8.016591E-4
1.915000E-7	8.239275E-4
1.915500E-7	8.598994E-4
1.916000E-7	9.061491E-4
1.916500E-7	9.352692E-4
1.917000E-7	9.318433E-4
1.917500E-7	9.284174E-4
1.918000E-7	8.907325E-4
1.918500E-7	8.307793E-4
1.919000E-7	7.845296E-4
1.919500E-7	7.057339E-4
1.920000E-7	6.440677E-4
1.920500E-7	5.909663E-4
1.921000E-7	5.481425E-4
1.921500E-7	5.327260E-4
1.922000E-7	5.224483E-4
1.922500E-7	5.293001E-4
1.923000E-7	5.995310E-4
1.923500E-7	6.372159E-4
1.924000E-7	7.142987E-4
1.924500E-7	7.982332E-4
1.925000E-7	8.307793E-4
1.925500E-7	8.307793E-4
1.926000E-7	8.256404E-4
1.926500E-7	7.999462E-4
1.927000E-7	7.485577E-4
1.927500E-7	7.331411E-4
1.928000E-7	7.091598E-4
1.928500E-7	6.749008E-4
1.929000E-7	6.509195E-4
1.929500E-7	6.355030E-4
1.930000E-7	5.943922E-4
1.930500E-7	5.721238E-4
1.931000E-7	5.635591E-4
1.931500E-7	5.601332E-4
1.932000E-7	5.652720E-4
1.932500E-7	5.686979E-4
1.933000E-7	5.635591E-4
1.933500E-7	5.344389E-4
1.934000E-7	5.053188E-4
1.934500E-7	4.761986E-4
1.935000E-7	4.590691E-4
1.935500E-7	4.076806E-4
1.936000E-7	3.631439E-4
1.936500E-7	3.271720E-4
1.937000E-7	2.757835E-4
1.937500E-7	2.278209E-4
1.938000E-7	1.593029E-4
1.938500E-7	1.473122E-4
1.939000E-7	1.370345E-4
1.939500E-7	1.404604E-4
1.940000E-7	1.661547E-4
1.940500E-7	1.969878E-4
1.941000E-7	2.740705E-4
1.941500E-7	3.443015E-4
1.942000E-7	4.196713E-4
1.942500E-7	4.916152E-4
1.943000E-7	5.704109E-4
1.943500E-7	6.629102E-4
1.944000E-7	7.331411E-4
1.944500E-7	7.725390E-4
1.945000E-7	8.307793E-4
1.945500E-7	8.393440E-4
1.946000E-7	8.496217E-4
1.946500E-7	8.547606E-4
1.947000E-7	8.598994E-4
1.947500E-7	8.427699E-4
1.948000E-7	8.855937E-4
1.948500E-7	8.992973E-4
1.949000E-7	9.078620E-4
1.949500E-7	8.873066E-4
1.950000E-7	8.718901E-4
1.950500E-7	8.427699E-4
1.951000E-7	7.828167E-4
1.951500E-7	6.988821E-4
1.952000E-7	6.132346E-4
1.952500E-7	5.395778E-4
1.953000E-7	4.470785E-4
1.953500E-7	3.871252E-4
1.954000E-7	3.391626E-4
1.954500E-7	3.374497E-4
1.955000E-7	3.254590E-4
1.955500E-7	3.288849E-4
1.956000E-7	3.374497E-4
1.956500E-7	3.580051E-4
1.957000E-7	3.597180E-4
1.957500E-7	3.699957E-4
1.958000E-7	4.196713E-4
1.958500E-7	4.453655E-4
1.959000E-7	4.522173E-4
1.959500E-7	4.402267E-4
1.960000E-7	4.830504E-4
1.960500E-7	5.344389E-4
1.961000E-7	5.755497E-4
1.961500E-7	6.337900E-4
1.962000E-7	6.971692E-4
1.962500E-7	8.102239E-4
1.963000E-7	8.804548E-4
1.963500E-7	9.198527E-4
1.964000E-7	9.763800E-4
1.964500E-7	9.917966E-4
1.965000E-7	9.935095E-4
1.965500E-7	9.900836E-4
1.966000E-7	1.005500E-3
1.966500E-7	1.012352E-3
1.967000E-7	1.034620E-3
1.967500E-7	1.041472E-3
1.968000E-7	1.091148E-3
1.968500E-7	1.152814E-3
1.969000E-7	1.192212E-3
1.969500E-7	1.260730E-3
1.970000E-7	1.282998E-3
1.970500E-7	1.296702E-3
1.971000E-7	1.264156E-3
1.971500E-7	1.233323E-3
1.972000E-7	1.169943E-3
1.972500E-7	1.079157E-3
1.973000E-7	1.007213E-3
1.973500E-7	9.301304E-4
1.974000E-7	8.324922E-4
1.974500E-7	7.759649E-4
1.975000E-7	7.297152E-4
1.975500E-7	6.920303E-4
1.976000E-7	6.646231E-4
1.976500E-7	6.423548E-4
1.977000E-7	6.526325E-4
1.977500E-7	6.800397E-4
1.978000E-7	7.177246E-4
1.978500E-7	7.399929E-4
1.979000E-7	7.519836E-4
1.979500E-7	7.399929E-4
1.980000E-7	7.554095E-4
1.980500E-7	8.033721E-4
1.981000E-7	8.461958E-4
1.981500E-7	8.787419E-4
1.982000E-7	9.489728E-4
1.982500E-7	9.678153E-4
1.983000E-7	9.969354E-4
1.983500E-7	1.031194E-3
1.984000E-7	1.036333E-3
1.984500E-7	1.012352E-3
1.985000E-7	9.798059E-4
1.985500E-7	9.284174E-4
1.986000E-7	8.513347E-4
1.986500E-7	7.965203E-4
1.987000E-7	7.485577E-4
1.987500E-7	6.988821E-4
1.988000E-7	6.577713E-4
1.988500E-7	6.543454E-4
1.989000E-7	6.714749E-4
1.989500E-7	6.834656E-4
1.990000E-7	7.211505E-4
1.990500E-7	7.622613E-4
1.991000E-7	8.273534E-4
1.991500E-7	9.061491E-4
1.992000E-7	9.661023E-4
1.992500E-7	1.053463E-3
1.993000E-7	1.123694E-3
1.993500E-7	1.171656E-3
1.994000E-7	1.216193E-3
1.994500E-7	1.224758E-3
1.995000E-7	1.233323E-3
1.995500E-7	1.257304E-3
1.996000E-7	1.267582E-3
1.996500E-7	1.259017E-3
1.997000E-7	1.265869E-3
1.997500E-7	1.265869E-3
1.998000E-7	1.250452E-3
1.998500E-7	1.229897E-3
1.999000E-7	1.214480E-3
1.999500E-7	1.192212E-3
2.000000E-7	1.178508E-3
2.000500E-7	1.161379E-3
