Study Name	IronIrradiated_Fe3plus
Sample Name	2022-01-04
Run Name	unirradiated_20
Operator	Angus
Date	1/4/2022
Time	13:00
Sign	FIX
Grating Spacing	06.40um
Channel	3
Number Traces	10000
Files in Batch	1
Batch Number	1
dt	50.000001E-12
time stamp (ms)	13:01:07
	
Time	Amplitude
0.000000E+0	-1.623878E-3
5.000000E-11	-1.551934E-3
1.000000E-10	-1.476564E-3
1.500000E-10	-1.426889E-3
2.000000E-10	-1.389204E-3
2.500000E-10	-1.380639E-3
3.000000E-10	-1.351519E-3
3.500000E-10	-1.399482E-3
4.000000E-10	-1.399482E-3
4.500000E-10	-1.461148E-3
5.000000E-10	-1.509110E-3
5.500000E-10	-1.562212E-3
6.000000E-10	-1.608462E-3
6.500000E-10	-1.664989E-3
7.000000E-10	-1.671841E-3
7.500000E-10	-1.666702E-3
8.000000E-10	-1.646146E-3
8.500000E-10	-1.584480E-3
9.000000E-10	-1.533092E-3
9.500000E-10	-1.430315E-3
1.000000E-9	-1.322399E-3
1.050000E-9	-1.192215E-3
1.100000E-9	-1.072308E-3
1.150000E-9	-9.643924E-4
1.200000E-9	-8.907355E-4
1.250000E-9	-8.718931E-4
1.300000E-9	-8.684672E-4
1.350000E-9	-9.112909E-4
1.400000E-9	-9.575406E-4
1.450000E-9	-1.008929E-3
1.500000E-9	-1.084299E-3
1.550000E-9	-1.171659E-3
1.600000E-9	-1.231613E-3
1.650000E-9	-1.277862E-3
1.700000E-9	-1.341241E-3
1.750000E-9	-1.360084E-3
1.800000E-9	-1.363510E-3
1.850000E-9	-1.337815E-3
1.900000E-9	-1.298418E-3
1.950000E-9	-1.245316E-3
2.000000E-9	-1.200779E-3
2.050000E-9	-1.140826E-3
2.100000E-9	-1.099715E-3
2.150000E-9	-1.079160E-3
2.200000E-9	-1.065456E-3
2.250000E-9	-1.065456E-3
2.300000E-9	-1.070595E-3
2.350000E-9	-1.121984E-3
2.400000E-9	-1.183650E-3
2.450000E-9	-1.252168E-3
2.500000E-9	-1.313834E-3
2.550000E-9	-1.375500E-3
2.600000E-9	-1.440592E-3
2.650000E-9	-1.471426E-3
2.700000E-9	-1.466287E-3
2.750000E-9	-1.406333E-3
2.800000E-9	-1.327538E-3
2.850000E-9	-1.209344E-3
2.900000E-9	-1.070595E-3
2.950000E-9	-9.729571E-4
3.000000E-9	-8.684672E-4
3.050000E-9	-7.982362E-4
3.100000E-9	-7.930974E-4
3.150000E-9	-8.290693E-4
3.200000E-9	-8.958744E-4
3.250000E-9	-1.003790E-3
3.300000E-9	-1.125410E-3
3.350000E-9	-1.255594E-3
3.400000E-9	-1.380639E-3
3.450000E-9	-1.500546E-3
3.500000E-9	-1.606749E-3
3.550000E-9	-1.661563E-3
3.600000E-9	-1.694109E-3
3.650000E-9	-1.697535E-3
3.700000E-9	-1.659850E-3
3.750000E-9	-1.620452E-3
3.800000E-9	-1.572490E-3
3.850000E-9	-1.486842E-3
3.900000E-9	-1.399482E-3
3.950000E-9	-1.313834E-3
4.000000E-9	-1.216196E-3
4.050000E-9	-1.128836E-3
4.100000E-9	-1.087725E-3
4.150000E-9	-1.106567E-3
4.200000E-9	-1.187076E-3
4.250000E-9	-1.281288E-3
4.300000E-9	-1.406333E-3
4.350000E-9	-1.569064E-3
4.400000E-9	-1.685544E-3
4.450000E-9	-1.798599E-3
4.500000E-9	-1.921931E-3
4.550000E-9	-2.026421E-3
4.600000E-9	-2.096652E-3
4.650000E-9	-2.180587E-3
4.700000E-9	-2.243966E-3
4.750000E-9	-2.276512E-3
4.800000E-9	-2.293642E-3
4.850000E-9	-2.309058E-3
4.900000E-9	-2.297068E-3
4.950000E-9	-2.273086E-3
5.000000E-9	-2.235401E-3
5.050000E-9	-2.168596E-3
5.100000E-9	-2.101791E-3
5.150000E-9	-2.067532E-3
5.200000E-9	-2.033273E-3
5.250000E-9	-2.016144E-3
5.300000E-9	-2.038412E-3
5.350000E-9	-2.055542E-3
5.400000E-9	-2.110356E-3
5.450000E-9	-2.180587E-3
5.500000E-9	-2.230262E-3
5.550000E-9	-2.266234E-3
5.600000E-9	-2.288503E-3
5.650000E-9	-2.278225E-3
5.700000E-9	-2.247392E-3
5.750000E-9	-2.093226E-3
5.800000E-9	-1.964755E-3
5.850000E-9	-1.795173E-3
5.900000E-9	-1.570777E-3
5.950000E-9	-1.401195E-3
6.000000E-9	-1.241890E-3
6.050000E-9	-1.140826E-3
6.100000E-9	-1.060318E-3
6.150000E-9	-1.082586E-3
6.200000E-9	-1.130549E-3
6.250000E-9	-1.214483E-3
6.300000E-9	-1.315547E-3
6.350000E-9	-1.425176E-3
6.400000E-9	-1.461148E-3
6.450000E-9	-1.457722E-3
6.500000E-9	-1.387491E-3
6.550000E-9	-1.147678E-3
6.600000E-9	-6.783297E-4
6.650000E-9	6.680357E-5
6.700000E-9	1.178508E-3
6.750000E-9	2.696182E-3
6.800000E-9	4.678065E-3
6.850000E-9	7.175546E-3
6.900000E-9	1.014409E-2
6.950000E-9	1.355115E-2
7.000000E-9	1.735390E-2
7.050000E-9	2.145812E-2
7.100000E-9	2.571138E-2
7.150000E-9	2.992181E-2
7.200000E-9	3.395752E-2
7.250000E-9	3.770374E-2
7.300000E-9	4.102344E-2
7.350000E-9	4.382925E-2
7.400000E-9	4.606294E-2
7.450000E-9	4.776390E-2
7.500000E-9	4.900065E-2
7.550000E-9	4.981772E-2
7.600000E-9	5.032990E-2
7.650000E-9	5.058170E-2
7.700000E-9	5.068790E-2
7.750000E-9	5.076327E-2
7.800000E-9	5.082323E-2
7.850000E-9	5.097568E-2
7.900000E-9	5.125318E-2
7.950000E-9	5.161804E-2
8.000000E-9	5.205998E-2
8.050000E-9	5.259270E-2
8.100000E-9	5.311173E-2
8.150000E-9	5.357594E-2
8.200000E-9	5.387742E-2
8.250000E-9	5.402987E-2
8.300000E-9	5.394765E-2
8.350000E-9	5.361362E-2
8.400000E-9	5.298840E-2
8.450000E-9	5.218502E-2
8.500000E-9	5.116582E-2
8.550000E-9	4.995819E-2
8.600000E-9	4.852102E-2
8.650000E-9	4.697251E-2
8.700000E-9	4.531952E-2
8.750000E-9	4.358601E-2
8.800000E-9	4.186964E-2
8.850000E-9	4.021493E-2
8.900000E-9	3.858762E-2
8.950000E-9	3.706995E-2
9.000000E-9	3.570473E-2
9.050000E-9	3.444742E-2
9.100000E-9	3.345220E-2
9.150000E-9	3.263684E-2
9.200000E-9	3.205101E-2
9.250000E-9	3.168957E-2
9.300000E-9	3.152513E-2
9.350000E-9	3.159879E-2
9.400000E-9	3.188142E-2
9.450000E-9	3.233878E-2
9.500000E-9	3.297086E-2
9.550000E-9	3.376053E-2
9.600000E-9	3.463071E-2
9.650000E-9	3.560024E-2
9.700000E-9	3.664000E-2
9.750000E-9	3.773115E-2
9.800000E-9	3.885313E-2
9.850000E-9	3.996312E-2
9.900000E-9	4.104057E-2
9.950000E-9	4.204950E-2
1.000000E-8	4.298819E-2
1.005000E-8	4.381383E-2
1.010000E-8	4.454013E-2
1.015000E-8	4.516364E-2
1.020000E-8	4.570493E-2
1.025000E-8	4.615544E-2
1.030000E-8	4.650488E-2
1.035000E-8	4.673441E-2
1.040000E-8	4.678923E-2
1.045000E-8	4.672585E-2
1.050000E-8	4.649974E-2
1.055000E-8	4.614345E-2
1.060000E-8	4.570493E-2
1.065000E-8	4.509512E-2
1.070000E-8	4.430203E-2
1.075000E-8	4.335819E-2
1.080000E-8	4.227732E-2
1.085000E-8	4.109196E-2
1.090000E-8	3.983636E-2
1.095000E-8	3.849341E-2
1.100000E-8	3.710421E-2
1.105000E-8	3.571501E-2
1.110000E-8	3.431210E-2
1.115000E-8	3.303595E-2
1.120000E-8	3.183689E-2
1.125000E-8	3.067208E-2
1.130000E-8	2.963061E-2
1.135000E-8	2.871761E-2
1.140000E-8	2.797419E-2
1.145000E-8	2.738664E-2
1.150000E-8	2.696868E-2
1.155000E-8	2.675114E-2
1.160000E-8	2.673915E-2
1.165000E-8	2.693271E-2
1.170000E-8	2.732669E-2
1.175000E-8	2.786284E-2
1.180000E-8	2.859599E-2
1.185000E-8	2.949357E-2
1.190000E-8	3.057102E-2
1.195000E-8	3.171698E-2
1.200000E-8	3.295716E-2
1.205000E-8	3.425729E-2
1.210000E-8	3.552658E-2
1.215000E-8	3.679759E-2
1.220000E-8	3.803092E-2
1.225000E-8	3.918887E-2
1.230000E-8	4.016183E-2
1.235000E-8	4.108168E-2
1.240000E-8	4.183195E-2
1.245000E-8	4.241093E-2
1.250000E-8	4.285630E-2
1.255000E-8	4.314236E-2
1.260000E-8	4.320231E-2
1.265000E-8	4.312865E-2
1.270000E-8	4.288713E-2
1.275000E-8	4.248972E-2
1.280000E-8	4.193644E-2
1.285000E-8	4.127524E-2
1.290000E-8	4.049071E-2
1.295000E-8	3.954516E-2
1.300000E-8	3.854994E-2
1.305000E-8	3.746222E-2
1.310000E-8	3.629570E-2
1.315000E-8	3.505723E-2
1.320000E-8	3.375025E-2
1.325000E-8	3.246554E-2
1.330000E-8	3.113287E-2
1.335000E-8	2.979163E-2
1.340000E-8	2.849150E-2
1.345000E-8	2.729757E-2
1.350000E-8	2.622012E-2
1.355000E-8	2.524717E-2
1.360000E-8	2.447634E-2
1.365000E-8	2.390764E-2
1.370000E-8	2.355649E-2
1.375000E-8	2.335950E-2
1.380000E-8	2.338519E-2
1.385000E-8	2.362329E-2
1.390000E-8	2.408065E-2
1.395000E-8	2.474699E-2
1.400000E-8	2.558462E-2
1.405000E-8	2.654901E-2
1.410000E-8	2.766757E-2
1.415000E-8	2.888548E-2
1.420000E-8	3.015648E-2
1.425000E-8	3.142064E-2
1.430000E-8	3.268994E-2
1.435000E-8	3.393525E-2
1.440000E-8	3.510348E-2
1.445000E-8	3.619806E-2
1.450000E-8	3.719500E-2
1.455000E-8	3.809772E-2
1.460000E-8	3.885656E-2
1.465000E-8	3.946123E-2
1.470000E-8	3.983636E-2
1.475000E-8	4.008303E-2
1.480000E-8	4.015326E-2
1.485000E-8	4.001622E-2
1.490000E-8	3.973016E-2
1.495000E-8	3.925054E-2
1.500000E-8	3.859276E-2
1.505000E-8	3.780309E-2
1.510000E-8	3.685754E-2
1.515000E-8	3.583320E-2
1.520000E-8	3.473006E-2
1.525000E-8	3.356012E-2
1.530000E-8	3.233707E-2
1.535000E-8	3.105750E-2
1.540000E-8	2.978306E-2
1.545000E-8	2.851890E-2
1.550000E-8	2.724789E-2
1.555000E-8	2.604369E-2
1.560000E-8	2.497481E-2
1.565000E-8	2.397616E-2
1.570000E-8	2.314709E-2
1.575000E-8	2.244136E-2
1.580000E-8	2.187094E-2
1.585000E-8	2.143586E-2
1.590000E-8	2.116178E-2
1.595000E-8	2.102646E-2
1.600000E-8	2.105901E-2
1.605000E-8	2.123887E-2
1.610000E-8	2.156433E-2
1.615000E-8	2.211418E-2
1.620000E-8	2.279251E-2
1.625000E-8	2.361644E-2
1.630000E-8	2.458254E-2
1.635000E-8	2.565143E-2
1.640000E-8	2.682308E-2
1.645000E-8	2.808039E-2
1.650000E-8	2.931714E-2
1.655000E-8	3.056417E-2
1.660000E-8	3.180263E-2
1.665000E-8	3.294174E-2
1.670000E-8	3.397294E-2
1.675000E-8	3.487566E-2
1.680000E-8	3.562422E-2
1.685000E-8	3.620491E-2
1.690000E-8	3.663144E-2
1.695000E-8	3.689866E-2
1.700000E-8	3.701514E-2
1.705000E-8	3.695861E-2
1.710000E-8	3.671537E-2
1.715000E-8	3.633510E-2
1.720000E-8	3.578866E-2
1.725000E-8	3.511719E-2
1.730000E-8	3.428127E-2
1.735000E-8	3.328776E-2
1.740000E-8	3.220860E-2
1.745000E-8	3.107976E-2
1.750000E-8	2.990468E-2
1.755000E-8	2.866279E-2
1.760000E-8	2.741576E-2
1.765000E-8	2.616702E-2
1.770000E-8	2.496282E-2
1.775000E-8	2.385454E-2
1.780000E-8	2.283534E-2
1.785000E-8	2.190520E-2
1.790000E-8	2.112581E-2
1.795000E-8	2.047489E-2
1.800000E-8	1.996614E-2
1.805000E-8	1.962527E-2
1.810000E-8	1.943684E-2
1.815000E-8	1.939916E-2
1.820000E-8	1.950707E-2
1.825000E-8	1.976402E-2
1.830000E-8	2.015628E-2
1.835000E-8	2.067017E-2
1.840000E-8	2.133479E-2
1.845000E-8	2.211247E-2
1.850000E-8	2.298436E-2
1.855000E-8	2.398301E-2
1.860000E-8	2.506388E-2
1.865000E-8	2.620985E-2
1.870000E-8	2.738836E-2
1.875000E-8	2.857029E-2
1.880000E-8	2.975394E-2
1.885000E-8	3.089134E-2
1.890000E-8	3.196707E-2
1.895000E-8	3.297086E-2
1.900000E-8	3.385132E-2
1.905000E-8	3.460159E-2
1.910000E-8	3.518742E-2
1.915000E-8	3.560024E-2
1.920000E-8	3.580751E-2
1.925000E-8	3.579894E-2
1.930000E-8	3.552658E-2
1.935000E-8	3.506751E-2
1.940000E-8	3.440803E-2
1.945000E-8	3.354641E-2
1.950000E-8	3.259401E-2
1.955000E-8	3.149087E-2
1.960000E-8	3.031236E-2
1.965000E-8	2.909274E-2
1.970000E-8	2.784743E-2
1.975000E-8	2.656785E-2
1.980000E-8	2.530198E-2
1.985000E-8	2.410121E-2
1.990000E-8	2.296552E-2
1.995000E-8	2.188122E-2
2.000000E-8	2.084660E-2
2.005000E-8	1.990619E-2
2.010000E-8	1.907712E-2
2.015000E-8	1.831143E-2
2.020000E-8	1.762968E-2
2.025000E-8	1.709524E-2
2.030000E-8	1.666529E-2
2.035000E-8	1.636038E-2
2.040000E-8	1.624390E-2
2.045000E-8	1.629872E-2
2.050000E-8	1.656594E-2
2.055000E-8	1.702330E-2
2.060000E-8	1.763825E-2
2.065000E-8	1.841592E-2
2.070000E-8	1.932379E-2
2.075000E-8	2.037897E-2
2.080000E-8	2.157289E-2
2.085000E-8	2.280793E-2
2.090000E-8	2.405324E-2
2.095000E-8	2.529513E-2
2.100000E-8	2.649934E-2
2.105000E-8	2.761618E-2
2.110000E-8	2.862511E-2
2.115000E-8	2.953468E-2
2.120000E-8	3.026097E-2
2.125000E-8	3.084680E-2
2.130000E-8	3.123564E-2
2.135000E-8	3.149087E-2
2.140000E-8	3.158337E-2
2.145000E-8	3.149944E-2
2.150000E-8	3.124763E-2
2.155000E-8	3.084338E-2
2.160000E-8	3.028667E-2
2.165000E-8	2.956209E-2
2.170000E-8	2.875529E-2
2.175000E-8	2.784058E-2
2.180000E-8	2.687618E-2
2.185000E-8	2.580730E-2
2.190000E-8	2.474356E-2
2.195000E-8	2.372436E-2
2.200000E-8	2.269145E-2
2.205000E-8	2.166368E-2
2.210000E-8	2.069244E-2
2.215000E-8	1.975545E-2
2.220000E-8	1.886643E-2
2.225000E-8	1.806820E-2
2.230000E-8	1.734704E-2
2.235000E-8	1.672524E-2
2.240000E-8	1.624219E-2
2.245000E-8	1.587048E-2
2.250000E-8	1.561868E-2
2.255000E-8	1.554673E-2
2.260000E-8	1.560155E-2
2.265000E-8	1.581738E-2
2.270000E-8	1.619423E-2
2.275000E-8	1.668927E-2
2.280000E-8	1.737445E-2
2.285000E-8	1.817954E-2
2.290000E-8	1.911138E-2
2.295000E-8	2.013401E-2
2.300000E-8	2.124229E-2
2.305000E-8	2.238312E-2
2.310000E-8	2.350853E-2
2.315000E-8	2.460995E-2
2.320000E-8	2.563943E-2
2.325000E-8	2.658156E-2
2.330000E-8	2.745687E-2
2.335000E-8	2.819344E-2
2.340000E-8	2.880497E-2
2.345000E-8	2.930515E-2
2.350000E-8	2.967001E-2
2.355000E-8	2.989954E-2
2.360000E-8	3.001088E-2
2.365000E-8	2.994750E-2
2.370000E-8	2.973339E-2
2.375000E-8	2.940621E-2
2.380000E-8	2.892145E-2
2.385000E-8	2.833733E-2
2.390000E-8	2.763673E-2
2.395000E-8	2.681966E-2
2.400000E-8	2.589295E-2
2.405000E-8	2.489259E-2
2.410000E-8	2.383741E-2
2.415000E-8	2.271886E-2
2.420000E-8	2.157632E-2
2.425000E-8	2.042693E-2
2.430000E-8	1.927583E-2
2.435000E-8	1.820523E-2
2.440000E-8	1.722542E-2
2.445000E-8	1.632955E-2
2.450000E-8	1.553646E-2
2.455000E-8	1.488896E-2
2.460000E-8	1.438364E-2
2.465000E-8	1.403077E-2
2.470000E-8	1.384577E-2
2.475000E-8	1.384749E-2
2.480000E-8	1.403249E-2
2.485000E-8	1.438021E-2
2.490000E-8	1.488896E-2
2.495000E-8	1.555187E-2
2.500000E-8	1.632270E-2
2.505000E-8	1.716205E-2
2.510000E-8	1.806134E-2
2.515000E-8	1.902060E-2
2.520000E-8	2.002781E-2
2.525000E-8	2.101790E-2
2.530000E-8	2.201826E-2
2.535000E-8	2.301348E-2
2.540000E-8	2.393334E-2
2.545000E-8	2.483435E-2
2.550000E-8	2.566684E-2
2.555000E-8	2.642568E-2
2.560000E-8	2.714341E-2
2.565000E-8	2.774465E-2
2.570000E-8	2.822770E-2
2.575000E-8	2.854631E-2
2.580000E-8	2.865765E-2
2.585000E-8	2.862682E-2
2.590000E-8	2.843326E-2
2.595000E-8	2.802215E-2
2.600000E-8	2.743461E-2
2.605000E-8	2.670146E-2
2.610000E-8	2.584156E-2
2.615000E-8	2.485662E-2
2.620000E-8	2.381514E-2
2.625000E-8	2.279594E-2
2.630000E-8	2.172534E-2
2.635000E-8	2.069586E-2
2.640000E-8	1.971948E-2
2.645000E-8	1.879449E-2
2.650000E-8	1.797741E-2
2.655000E-8	1.721686E-2
2.660000E-8	1.650599E-2
2.665000E-8	1.584650E-2
2.670000E-8	1.526581E-2
2.675000E-8	1.474336E-2
2.680000E-8	1.428600E-2
2.685000E-8	1.388517E-2
2.690000E-8	1.359226E-2
2.695000E-8	1.339698E-2
2.700000E-8	1.332332E-2
2.705000E-8	1.337985E-2
2.710000E-8	1.358369E-2
2.715000E-8	1.391258E-2
2.720000E-8	1.437679E-2
2.725000E-8	1.498146E-2
2.730000E-8	1.569747E-2
2.735000E-8	1.652483E-2
2.740000E-8	1.746866E-2
2.745000E-8	1.849301E-2
2.750000E-8	1.954476E-2
2.755000E-8	2.059308E-2
2.760000E-8	2.164312E-2
2.765000E-8	2.260751E-2
2.770000E-8	2.349996E-2
2.775000E-8	2.428963E-2
2.780000E-8	2.499879E-2
2.785000E-8	2.554008E-2
2.790000E-8	2.595290E-2
2.795000E-8	2.624925E-2
2.800000E-8	2.639827E-2
2.805000E-8	2.641883E-2
2.810000E-8	2.625438E-2
2.815000E-8	2.593749E-2
2.820000E-8	2.549383E-2
2.825000E-8	2.488574E-2
2.830000E-8	2.418685E-2
2.835000E-8	2.341774E-2
2.840000E-8	2.256469E-2
2.845000E-8	2.162085E-2
2.850000E-8	2.064105E-2
2.855000E-8	1.964240E-2
2.860000E-8	1.861463E-2
2.865000E-8	1.763653E-2
2.870000E-8	1.667899E-2
2.875000E-8	1.576942E-2
2.880000E-8	1.491979E-2
2.885000E-8	1.413526E-2
2.890000E-8	1.345351E-2
2.895000E-8	1.286768E-2
2.900000E-8	1.240518E-2
2.905000E-8	1.205060E-2
2.910000E-8	1.181250E-2
2.915000E-8	1.173371E-2
2.920000E-8	1.182449E-2
2.925000E-8	1.211227E-2
2.930000E-8	1.254393E-2
2.935000E-8	1.306296E-2
2.940000E-8	1.374814E-2
2.945000E-8	1.454294E-2
2.950000E-8	1.544567E-2
2.955000E-8	1.641349E-2
2.960000E-8	1.745153E-2
2.965000E-8	1.853754E-2
2.970000E-8	1.964754E-2
2.975000E-8	2.072841E-2
2.980000E-8	2.177845E-2
2.985000E-8	2.276168E-2
2.990000E-8	2.361473E-2
2.995000E-8	2.433759E-2
3.000000E-8	2.491314E-2
3.005000E-8	2.530884E-2
3.010000E-8	2.552124E-2
3.015000E-8	2.557434E-2
3.020000E-8	2.547499E-2
3.025000E-8	2.521805E-2
3.030000E-8	2.485833E-2
3.035000E-8	2.438042E-2
3.040000E-8	2.385968E-2
3.045000E-8	2.326700E-2
3.050000E-8	2.262122E-2
3.055000E-8	2.191034E-2
3.060000E-8	2.117377E-2
3.065000E-8	2.036012E-2
3.070000E-8	1.950879E-2
3.075000E-8	1.870027E-2
3.080000E-8	1.784380E-2
3.085000E-8	1.693080E-2
3.090000E-8	1.603835E-2
3.095000E-8	1.515104E-2
3.100000E-8	1.427059E-2
3.105000E-8	1.345693E-2
3.110000E-8	1.268782E-2
3.115000E-8	1.197866E-2
3.120000E-8	1.141167E-2
3.125000E-8	1.100399E-2
3.130000E-8	1.071279E-2
3.135000E-8	1.062885E-2
3.140000E-8	1.069223E-2
3.145000E-8	1.093718E-2
3.150000E-8	1.132774E-2
3.155000E-8	1.185361E-2
3.160000E-8	1.252509E-2
3.165000E-8	1.326680E-2
3.170000E-8	1.411299E-2
3.175000E-8	1.498489E-2
3.180000E-8	1.589275E-2
3.185000E-8	1.678691E-2
3.190000E-8	1.767764E-2
3.195000E-8	1.853241E-2
3.200000E-8	1.932721E-2
3.205000E-8	2.003638E-2
3.210000E-8	2.066160E-2
3.215000E-8	2.121660E-2
3.220000E-8	2.170650E-2
3.225000E-8	2.210391E-2
3.230000E-8	2.242423E-2
3.235000E-8	2.263492E-2
3.240000E-8	2.271543E-2
3.245000E-8	2.269487E-2
3.250000E-8	2.254585E-2
3.255000E-8	2.227178E-2
3.260000E-8	2.191719E-2
3.265000E-8	2.144956E-2
3.270000E-8	2.089114E-2
3.275000E-8	2.021966E-2
3.280000E-8	1.948138E-2
3.285000E-8	1.869514E-2
3.290000E-8	1.782838E-2
3.295000E-8	1.693422E-2
3.300000E-8	1.603492E-2
3.305000E-8	1.514762E-2
3.310000E-8	1.425003E-2
3.315000E-8	1.342953E-2
3.320000E-8	1.261759E-2
3.325000E-8	1.188445E-2
3.330000E-8	1.125237E-2
3.335000E-8	1.069395E-2
3.340000E-8	1.027085E-2
3.345000E-8	9.976220E-3
3.350000E-8	9.847748E-3
3.355000E-8	9.842610E-3
3.360000E-8	9.995062E-3
3.365000E-8	1.031196E-2
3.370000E-8	1.075219E-2
3.375000E-8	1.129519E-2
3.380000E-8	1.194954E-2
3.385000E-8	1.270666E-2
3.390000E-8	1.351517E-2
3.395000E-8	1.439049E-2
3.400000E-8	1.531548E-2
3.405000E-8	1.626789E-2
3.410000E-8	1.721515E-2
3.415000E-8	1.812130E-2
3.420000E-8	1.898976E-2
3.425000E-8	1.984452E-2
3.430000E-8	2.059994E-2
3.435000E-8	2.129025E-2
3.440000E-8	2.188294E-2
3.445000E-8	2.231289E-2
3.450000E-8	2.263149E-2
3.455000E-8	2.284047E-2
3.460000E-8	2.289186E-2
3.465000E-8	2.280450E-2
3.470000E-8	2.258353E-2
3.475000E-8	2.225122E-2
3.480000E-8	2.180071E-2
3.485000E-8	2.127655E-2
3.490000E-8	2.064447E-2
3.495000E-8	1.993360E-2
3.500000E-8	1.915078E-2
3.505000E-8	1.828574E-2
3.510000E-8	1.742755E-2
3.515000E-8	1.655566E-2
3.520000E-8	1.567007E-2
3.525000E-8	1.480503E-2
3.530000E-8	1.398624E-2
3.535000E-8	1.321541E-2
3.540000E-8	1.249597E-2
3.545000E-8	1.183306E-2
3.550000E-8	1.125922E-2
3.555000E-8	1.078131E-2
3.560000E-8	1.040446E-2
3.565000E-8	1.014580E-2
3.570000E-8	1.000020E-2
3.575000E-8	9.933396E-3
3.580000E-8	9.971081E-3
3.585000E-8	1.009441E-2
3.590000E-8	1.030339E-2
3.595000E-8	1.056890E-2
3.600000E-8	1.094918E-2
3.605000E-8	1.141338E-2
3.610000E-8	1.194783E-2
3.615000E-8	1.260217E-2
3.620000E-8	1.333189E-2
3.625000E-8	1.414554E-2
3.630000E-8	1.496947E-2
3.635000E-8	1.583108E-2
3.640000E-8	1.664987E-2
3.645000E-8	1.742584E-2
3.650000E-8	1.812301E-2
3.655000E-8	1.870199E-2
3.660000E-8	1.918333E-2
3.665000E-8	1.955846E-2
3.670000E-8	1.981712E-2
3.675000E-8	1.995587E-2
3.680000E-8	1.996614E-2
3.685000E-8	1.986508E-2
3.690000E-8	1.966295E-2
3.695000E-8	1.940601E-2
3.700000E-8	1.904800E-2
3.705000E-8	1.865745E-2
3.710000E-8	1.820694E-2
3.715000E-8	1.769306E-2
3.720000E-8	1.713464E-2
3.725000E-8	1.649228E-2
3.730000E-8	1.577969E-2
3.735000E-8	1.501914E-2
3.740000E-8	1.423975E-2
3.745000E-8	1.341068E-2
3.750000E-8	1.260902E-2
3.755000E-8	1.183820E-2
3.760000E-8	1.113246E-2
3.765000E-8	1.053635E-2
3.770000E-8	1.003275E-2
3.775000E-8	9.637056E-3
3.780000E-8	9.380113E-3
3.785000E-8	9.255068E-3
3.790000E-8	9.255068E-3
3.795000E-8	9.340715E-3
3.800000E-8	9.510297E-3
3.805000E-8	9.779230E-3
3.810000E-8	1.012011E-2
3.815000E-8	1.053464E-2
3.820000E-8	1.099885E-2
3.825000E-8	1.151616E-2
3.830000E-8	1.212255E-2
3.835000E-8	1.278374E-2
3.840000E-8	1.348777E-2
3.845000E-8	1.419693E-2
3.850000E-8	1.493178E-2
3.855000E-8	1.564951E-2
3.860000E-8	1.636038E-2
3.865000E-8	1.704728E-2
3.870000E-8	1.766908E-2
3.875000E-8	1.822579E-2
3.880000E-8	1.865916E-2
3.885000E-8	1.899833E-2
3.890000E-8	1.919874E-2
3.895000E-8	1.925870E-2
3.900000E-8	1.921245E-2
3.905000E-8	1.910624E-2
3.910000E-8	1.888699E-2
3.915000E-8	1.862319E-2
3.920000E-8	1.830287E-2
3.925000E-8	1.787977E-2
3.930000E-8	1.742070E-2
3.935000E-8	1.692395E-2
3.940000E-8	1.638608E-2
3.945000E-8	1.579511E-2
3.950000E-8	1.520928E-2
3.955000E-8	1.451896E-2
3.960000E-8	1.379439E-2
3.965000E-8	1.303212E-2
3.970000E-8	1.229555E-2
3.975000E-8	1.156070E-2
3.980000E-8	1.088751E-2
3.985000E-8	1.027085E-2
3.990000E-8	9.715851E-3
3.995000E-8	9.301317E-3
4.000000E-8	8.970718E-3
4.005000E-8	8.797710E-3
4.010000E-8	8.741183E-3
4.015000E-8	8.806275E-3
4.020000E-8	9.013542E-3
4.025000E-8	9.309882E-3
4.030000E-8	9.690157E-3
4.035000E-8	1.016978E-2
4.040000E-8	1.066654E-2
4.045000E-8	1.118899E-2
4.050000E-8	1.179023E-2
4.055000E-8	1.238805E-2
4.060000E-8	1.298073E-2
4.065000E-8	1.362994E-2
4.070000E-8	1.422947E-2
4.075000E-8	1.483072E-2
4.080000E-8	1.541141E-2
4.085000E-8	1.594756E-2
4.090000E-8	1.643404E-2
4.095000E-8	1.689825E-2
4.100000E-8	1.728195E-2
4.105000E-8	1.758172E-2
4.110000E-8	1.775301E-2
4.115000E-8	1.785236E-2
4.120000E-8	1.782153E-2
4.125000E-8	1.771019E-2
4.130000E-8	1.746524E-2
4.135000E-8	1.714492E-2
4.140000E-8	1.674922E-2
4.145000E-8	1.628844E-2
4.150000E-8	1.579340E-2
4.155000E-8	1.524183E-2
4.160000E-8	1.468512E-2
4.165000E-8	1.411642E-2
4.170000E-8	1.351860E-2
4.175000E-8	1.290879E-2
4.180000E-8	1.233495E-2
4.185000E-8	1.181935E-2
4.190000E-8	1.130033E-2
4.195000E-8	1.082584E-2
4.200000E-8	1.040274E-2
4.205000E-8	1.002247E-2
4.210000E-8	9.661037E-3
4.215000E-8	9.371548E-3
4.220000E-8	9.126596E-3
4.225000E-8	8.943311E-3
4.230000E-8	8.809701E-3
4.235000E-8	8.742896E-3
4.240000E-8	8.754886E-3
4.245000E-8	8.830256E-3
4.250000E-8	8.951875E-3
4.255000E-8	9.176272E-3
4.260000E-8	9.515436E-3
4.265000E-8	9.897424E-3
4.270000E-8	1.040788E-2
4.275000E-8	1.096288E-2
4.280000E-8	1.156926E-2
4.285000E-8	1.220648E-2
4.290000E-8	1.290708E-2
4.295000E-8	1.357684E-2
4.300000E-8	1.423633E-2
4.305000E-8	1.485470E-2
4.310000E-8	1.539942E-2
4.315000E-8	1.587733E-2
4.320000E-8	1.623191E-2
4.325000E-8	1.650941E-2
4.330000E-8	1.663446E-2
4.335000E-8	1.668071E-2
4.340000E-8	1.661048E-2
4.345000E-8	1.643747E-2
4.350000E-8	1.620451E-2
4.355000E-8	1.587733E-2
4.360000E-8	1.553303E-2
4.365000E-8	1.514248E-2
4.370000E-8	1.472452E-2
4.375000E-8	1.426887E-2
4.380000E-8	1.380295E-2
4.385000E-8	1.329934E-2
4.390000E-8	1.276662E-2
4.395000E-8	1.226986E-2
4.400000E-8	1.177996E-2
4.405000E-8	1.126093E-2
4.410000E-8	1.075390E-2
4.415000E-8	1.026571E-2
4.420000E-8	9.808351E-3
4.425000E-8	9.428076E-3
4.430000E-8	9.123170E-3
4.435000E-8	8.840534E-3
4.440000E-8	8.636693E-3
4.445000E-8	8.530490E-3
4.450000E-8	8.453407E-3
4.455000E-8	8.424287E-3
4.460000E-8	8.458546E-3
4.465000E-8	8.576739E-3
4.470000E-8	8.730905E-3
4.475000E-8	8.970718E-3
4.480000E-8	9.272197E-3
4.485000E-8	9.659324E-3
4.490000E-8	1.007214E-2
4.495000E-8	1.052779E-2
4.500000E-8	1.103311E-2
4.505000E-8	1.159153E-2
4.510000E-8	1.213968E-2
4.515000E-8	1.268268E-2
4.520000E-8	1.320170E-2
4.525000E-8	1.364193E-2
4.530000E-8	1.401022E-2
4.535000E-8	1.432026E-2
4.540000E-8	1.460290E-2
4.545000E-8	1.478104E-2
4.550000E-8	1.491979E-2
4.555000E-8	1.498317E-2
4.560000E-8	1.502257E-2
4.565000E-8	1.500202E-2
4.570000E-8	1.493178E-2
4.575000E-8	1.481359E-2
4.580000E-8	1.463202E-2
4.585000E-8	1.439392E-2
4.590000E-8	1.410272E-2
4.595000E-8	1.376527E-2
4.600000E-8	1.339698E-2
4.605000E-8	1.294648E-2
4.610000E-8	1.247027E-2
4.615000E-8	1.198208E-2
4.620000E-8	1.149732E-2
4.625000E-8	1.098515E-2
4.630000E-8	1.049182E-2
4.635000E-8	1.003275E-2
4.640000E-8	9.573676E-3
4.645000E-8	9.154004E-3
4.650000E-8	8.734331E-3
4.655000E-8	8.371185E-3
4.660000E-8	8.071419E-3
4.665000E-8	7.848736E-3
4.670000E-8	7.687718E-3
4.675000E-8	7.614061E-3
4.680000E-8	7.617487E-3
4.685000E-8	7.701422E-3
4.690000E-8	7.867578E-3
4.695000E-8	8.102252E-3
4.700000E-8	8.400306E-3
4.705000E-8	8.780580E-3
4.710000E-8	9.232799E-3
4.715000E-8	9.691870E-3
4.720000E-8	1.019890E-2
4.725000E-8	1.069052E-2
4.730000E-8	1.116843E-2
4.735000E-8	1.163949E-2
4.740000E-8	1.206944E-2
4.745000E-8	1.247199E-2
4.750000E-8	1.280430E-2
4.755000E-8	1.310407E-2
4.760000E-8	1.336101E-2
4.765000E-8	1.354087E-2
4.770000E-8	1.366763E-2
4.775000E-8	1.371216E-2
4.780000E-8	1.370874E-2
4.785000E-8	1.362994E-2
4.790000E-8	1.349462E-2
4.795000E-8	1.329934E-2
4.800000E-8	1.303384E-2
4.805000E-8	1.272208E-2
4.810000E-8	1.239662E-2
4.815000E-8	1.201806E-2
4.820000E-8	1.161037E-2
4.825000E-8	1.122153E-2
4.830000E-8	1.078131E-2
4.835000E-8	1.034622E-2
4.840000E-8	9.945387E-3
4.845000E-8	9.613074E-3
4.850000E-8	9.265345E-3
4.855000E-8	8.962153E-3
4.860000E-8	8.700072E-3
4.865000E-8	8.443129E-3
4.870000E-8	8.252992E-3
4.875000E-8	8.074845E-3
4.880000E-8	7.973781E-3
4.885000E-8	7.879569E-3
4.890000E-8	7.836745E-3
4.895000E-8	7.848736E-3
4.900000E-8	7.915541E-3
4.905000E-8	8.049151E-3
4.910000E-8	8.208455E-3
4.915000E-8	8.415722E-3
4.920000E-8	8.674378E-3
4.925000E-8	8.963866E-3
4.930000E-8	9.256781E-3
4.935000E-8	9.594232E-3
4.940000E-8	9.940248E-3
4.945000E-8	1.031196E-2
4.950000E-8	1.066311E-2
4.955000E-8	1.107593E-2
4.960000E-8	1.146477E-2
4.965000E-8	1.186560E-2
4.970000E-8	1.225616E-2
4.975000E-8	1.263814E-2
4.980000E-8	1.298416E-2
4.985000E-8	1.330277E-2
4.990000E-8	1.357684E-2
4.995000E-8	1.379439E-2
5.000000E-8	1.396225E-2
5.005000E-8	1.406503E-2
5.010000E-8	1.404790E-2
5.015000E-8	1.395026E-2
5.020000E-8	1.379610E-2
5.025000E-8	1.353916E-2
5.030000E-8	1.321883E-2
5.035000E-8	1.285911E-2
5.040000E-8	1.248227E-2
5.045000E-8	1.203176E-2
5.050000E-8	1.160181E-2
5.055000E-8	1.119413E-2
5.060000E-8	1.076246E-2
5.065000E-8	1.030853E-2
5.070000E-8	9.861452E-3
5.075000E-8	9.393817E-3
5.080000E-8	8.900487E-3
5.085000E-8	8.408870E-3
5.090000E-8	7.941235E-3
5.095000E-8	7.507859E-3
5.100000E-8	7.119019E-3
5.105000E-8	6.822679E-3
5.110000E-8	6.613699E-3
5.115000E-8	6.492079E-3
5.120000E-8	6.414996E-3
5.125000E-8	6.457820E-3
5.130000E-8	6.586291E-3
5.135000E-8	6.774716E-3
5.140000E-8	7.047075E-3
5.145000E-8	7.413646E-3
5.150000E-8	7.821328E-3
5.155000E-8	8.249566E-3
5.160000E-8	8.667526E-3
5.165000E-8	9.123170E-3
5.170000E-8	9.551408E-3
5.175000E-8	9.969368E-3
5.180000E-8	1.034450E-2
5.185000E-8	1.067168E-2
5.190000E-8	1.092862E-2
5.195000E-8	1.116843E-2
5.200000E-8	1.134487E-2
5.205000E-8	1.142195E-2
5.210000E-8	1.142366E-2
5.215000E-8	1.137056E-2
5.220000E-8	1.126778E-2
5.225000E-8	1.108964E-2
5.230000E-8	1.090293E-2
5.235000E-8	1.067682E-2
5.240000E-8	1.047640E-2
5.245000E-8	1.027256E-2
5.250000E-8	1.007557E-2
5.255000E-8	9.931683E-3
5.260000E-8	9.794647E-3
5.265000E-8	9.664463E-3
5.270000E-8	9.522288E-3
5.275000E-8	9.340715E-3
5.280000E-8	9.131735E-3
5.285000E-8	8.878219E-3
5.290000E-8	8.600721E-3
5.295000E-8	8.292390E-3
5.300000E-8	7.992623E-3
5.305000E-8	7.668876E-3
5.310000E-8	7.375961E-3
5.315000E-8	7.093325E-3
5.320000E-8	6.892910E-3
5.325000E-8	6.726753E-3
5.330000E-8	6.605134E-3
5.335000E-8	6.531477E-3
5.340000E-8	6.538329E-3
5.345000E-8	6.593143E-3
5.350000E-8	6.743883E-3
5.355000E-8	6.964853E-3
5.360000E-8	7.235500E-3
5.365000E-8	7.564386E-3
5.370000E-8	7.901837E-3
5.375000E-8	8.290677E-3
5.380000E-8	8.677803E-3
5.385000E-8	9.064930E-3
5.390000E-8	9.448631E-3
5.395000E-8	9.813489E-3
5.400000E-8	1.013895E-2
5.405000E-8	1.041987E-2
5.410000E-8	1.069052E-2
5.415000E-8	1.089779E-2
5.420000E-8	1.108107E-2
5.425000E-8	1.120269E-2
5.430000E-8	1.129005E-2
5.435000E-8	1.134315E-2
5.440000E-8	1.135001E-2
5.445000E-8	1.132774E-2
5.450000E-8	1.126607E-2
5.455000E-8	1.118214E-2
5.460000E-8	1.107251E-2
5.465000E-8	1.090806E-2
5.470000E-8	1.069737E-2
5.475000E-8	1.042501E-2
5.480000E-8	1.008756E-2
5.485000E-8	9.731268E-3
5.490000E-8	9.356132E-3
5.495000E-8	8.963866E-3
5.500000E-8	8.554471E-3
5.505000E-8	8.170770E-3
5.510000E-8	7.783644E-3
5.515000E-8	7.411933E-3
5.520000E-8	7.083047E-3
5.525000E-8	6.815827E-3
5.530000E-8	6.611986E-3
5.535000E-8	6.478376E-3
5.540000E-8	6.353330E-3
5.545000E-8	6.288238E-3
5.550000E-8	6.260831E-3
5.555000E-8	6.271109E-3
5.560000E-8	6.327636E-3
5.565000E-8	6.375599E-3
5.570000E-8	6.504070E-3
5.575000E-8	6.630828E-3
5.580000E-8	6.795271E-3
5.585000E-8	6.918604E-3
5.590000E-8	7.098464E-3
5.595000E-8	7.298879E-3
5.600000E-8	7.511284E-3
5.605000E-8	7.723690E-3
5.610000E-8	7.946374E-3
5.615000E-8	8.179335E-3
5.620000E-8	8.407157E-3
5.625000E-8	8.660674E-3
5.630000E-8	8.957014E-3
5.635000E-8	9.243077E-3
5.640000E-8	9.549695E-3
5.645000E-8	9.830619E-3
5.650000E-8	1.004474E-2
5.655000E-8	1.018520E-2
5.660000E-8	1.030682E-2
5.665000E-8	1.035136E-2
5.670000E-8	1.036163E-2
5.675000E-8	1.032052E-2
5.680000E-8	1.024858E-2
5.685000E-8	1.009270E-2
5.690000E-8	9.895711E-3
5.695000E-8	9.666176E-3
5.700000E-8	9.441779E-3
5.705000E-8	9.203679E-3
5.710000E-8	8.951875E-3
5.715000E-8	8.710350E-3
5.720000E-8	8.461972E-3
5.725000E-8	8.218733E-3
5.730000E-8	7.985772E-3
5.735000E-8	7.727116E-3
5.740000E-8	7.490729E-3
5.745000E-8	7.245777E-3
5.750000E-8	6.997399E-3
5.755000E-8	6.795271E-3
5.760000E-8	6.659948E-3
5.765000E-8	6.569162E-3
5.770000E-8	6.553745E-3
5.775000E-8	6.596569E-3
5.780000E-8	6.702772E-3
5.785000E-8	6.832956E-3
5.790000E-8	7.029946E-3
5.795000E-8	7.266333E-3
5.800000E-8	7.528414E-3
5.805000E-8	7.804199E-3
5.810000E-8	8.056003E-3
5.815000E-8	8.333501E-3
5.820000E-8	8.626415E-3
5.825000E-8	8.891922E-3
5.830000E-8	9.128309E-3
5.835000E-8	9.323586E-3
5.840000E-8	9.513723E-3
5.845000E-8	9.662750E-3
5.850000E-8	9.780943E-3
5.855000E-8	9.900850E-3
5.860000E-8	1.000705E-2
5.865000E-8	1.005844E-2
5.870000E-8	1.009613E-2
5.875000E-8	1.008585E-2
5.880000E-8	1.004474E-2
5.885000E-8	9.953951E-3
5.890000E-8	9.863165E-3
5.895000E-8	9.777517E-3
5.900000E-8	9.657611E-3
5.905000E-8	9.515436E-3
5.910000E-8	9.282475E-3
5.915000E-8	9.058078E-3
5.920000E-8	8.814839E-3
5.925000E-8	8.592156E-3
5.930000E-8	8.340352E-3
5.935000E-8	8.081697E-3
5.940000E-8	7.833319E-3
5.945000E-8	7.602071E-3
5.950000E-8	7.369110E-3
5.955000E-8	7.160130E-3
5.960000E-8	6.939159E-3
5.965000E-8	6.733605E-3
5.970000E-8	6.562310E-3
5.975000E-8	6.377312E-3
5.980000E-8	6.228285E-3
5.985000E-8	6.104953E-3
5.990000E-8	6.014166E-3
5.995000E-8	5.991898E-3
6.000000E-8	6.000463E-3
6.005000E-8	6.033009E-3
6.010000E-8	6.152915E-3
6.015000E-8	6.344766E-3
6.020000E-8	6.576014E-3
6.025000E-8	6.846660E-3
6.030000E-8	7.156704E-3
6.035000E-8	7.504433E-3
6.040000E-8	7.833319E-3
6.045000E-8	8.145076E-3
6.050000E-8	8.453407E-3
6.055000E-8	8.703498E-3
6.060000E-8	8.907339E-3
6.065000E-8	9.035810E-3
6.070000E-8	9.124883E-3
6.075000E-8	9.165994E-3
6.080000E-8	9.171133E-3
6.085000E-8	9.133448E-3
6.090000E-8	9.054652E-3
6.095000E-8	8.936459E-3
6.100000E-8	8.807988E-3
6.105000E-8	8.670952E-3
6.110000E-8	8.551045E-3
6.115000E-8	8.444842E-3
6.120000E-8	8.390028E-3
6.125000E-8	8.371185E-3
6.130000E-8	8.367760E-3
6.135000E-8	8.319797E-3
6.140000E-8	8.246140E-3
6.145000E-8	8.136511E-3
6.150000E-8	8.004614E-3
6.155000E-8	7.835032E-3
6.160000E-8	7.638043E-3
6.165000E-8	7.389665E-3
6.170000E-8	7.089899E-3
6.175000E-8	6.745596E-3
6.180000E-8	6.382450E-3
6.185000E-8	6.063842E-3
6.190000E-8	5.805186E-3
6.195000E-8	5.589355E-3
6.200000E-8	5.430050E-3
6.205000E-8	5.308431E-3
6.210000E-8	5.269033E-3
6.215000E-8	5.305005E-3
6.220000E-8	5.358106E-3
6.225000E-8	5.438615E-3
6.230000E-8	5.537966E-3
6.235000E-8	5.654447E-3
6.240000E-8	5.781205E-3
6.245000E-8	5.942222E-3
6.250000E-8	6.144350E-3
6.255000E-8	6.332775E-3
6.260000E-8	6.562310E-3
6.265000E-8	6.803836E-3
6.270000E-8	7.038510E-3
6.275000E-8	7.286888E-3
6.280000E-8	7.578090E-3
6.285000E-8	7.821328E-3
6.290000E-8	8.042299E-3
6.295000E-8	8.223872E-3
6.300000E-8	8.362621E-3
6.305000E-8	8.443129E-3
6.310000E-8	8.451694E-3
6.315000E-8	8.419148E-3
6.320000E-8	8.292390E-3
6.325000E-8	8.162206E-3
6.330000E-8	8.030308E-3
6.335000E-8	7.874430E-3
6.340000E-8	7.715126E-3
6.345000E-8	7.535266E-3
6.350000E-8	7.401656E-3
6.355000E-8	7.226935E-3
6.360000E-8	7.065917E-3
6.365000E-8	6.889484E-3
6.370000E-8	6.719902E-3
6.375000E-8	6.540042E-3
6.380000E-8	6.329349E-3
6.385000E-8	6.087823E-3
6.390000E-8	5.848010E-3
6.395000E-8	5.616762E-3
6.400000E-8	5.354680E-3
6.405000E-8	5.126858E-3
6.410000E-8	4.914452E-3
6.415000E-8	4.772277E-3
6.420000E-8	4.660936E-3
6.425000E-8	4.618112E-3
6.430000E-8	4.621538E-3
6.435000E-8	4.662649E-3
6.440000E-8	4.755148E-3
6.445000E-8	4.876767E-3
6.450000E-8	5.022368E-3
6.455000E-8	5.188524E-3
6.460000E-8	5.358106E-3
6.465000E-8	5.510559E-3
6.470000E-8	5.654447E-3
6.475000E-8	5.798334E-3
6.480000E-8	5.926806E-3
6.485000E-8	6.062129E-3
6.490000E-8	6.192313E-3
6.495000E-8	6.331062E-3
6.500000E-8	6.457820E-3
6.505000E-8	6.586291E-3
6.510000E-8	6.673652E-3
6.515000E-8	6.747309E-3
6.520000E-8	6.826104E-3
6.525000E-8	6.898048E-3
6.530000E-8	6.930594E-3
6.535000E-8	6.956289E-3
6.540000E-8	6.968279E-3
6.545000E-8	6.949437E-3
6.550000E-8	6.964853E-3
6.555000E-8	6.983696E-3
6.560000E-8	6.995687E-3
6.565000E-8	6.969992E-3
6.570000E-8	6.981983E-3
6.575000E-8	6.951150E-3
6.580000E-8	6.918604E-3
6.585000E-8	6.899761E-3
6.590000E-8	6.855225E-3
6.595000E-8	6.759299E-3
6.600000E-8	6.644532E-3
6.605000E-8	6.500644E-3
6.610000E-8	6.370460E-3
6.615000E-8	6.206017E-3
6.620000E-8	6.065555E-3
6.625000E-8	5.938796E-3
6.630000E-8	5.820603E-3
6.635000E-8	5.721252E-3
6.640000E-8	5.664724E-3
6.645000E-8	5.621901E-3
6.650000E-8	5.591067E-3
6.655000E-8	5.592780E-3
6.660000E-8	5.613336E-3
6.665000E-8	5.592780E-3
6.670000E-8	5.585929E-3
6.675000E-8	5.615049E-3
6.680000E-8	5.618475E-3
6.685000E-8	5.627039E-3
6.690000E-8	5.651021E-3
6.695000E-8	5.661298E-3
6.700000E-8	5.692132E-3
6.705000E-8	5.752085E-3
6.710000E-8	5.849723E-3
6.715000E-8	5.969629E-3
6.720000E-8	6.123795E-3
6.725000E-8	6.236850E-3
6.730000E-8	6.375599E-3
6.735000E-8	6.502357E-3
6.740000E-8	6.588004E-3
6.745000E-8	6.637680E-3
6.750000E-8	6.608560E-3
6.755000E-8	6.529764E-3
6.760000E-8	6.425274E-3
6.765000E-8	6.284812E-3
6.770000E-8	6.103240E-3
6.775000E-8	5.902824E-3
6.780000E-8	5.743520E-3
6.785000E-8	5.570512E-3
6.790000E-8	5.416347E-3
6.795000E-8	5.281024E-3
6.800000E-8	5.167969E-3
6.805000E-8	5.092599E-3
6.810000E-8	5.061766E-3
6.815000E-8	5.073757E-3
6.820000E-8	5.106303E-3
6.825000E-8	5.147413E-3
6.830000E-8	5.217644E-3
6.835000E-8	5.260468E-3
6.840000E-8	5.284449E-3
6.845000E-8	5.289588E-3
6.850000E-8	5.296440E-3
6.855000E-8	5.282736E-3
6.860000E-8	5.263894E-3
6.865000E-8	5.258755E-3
6.870000E-8	5.246765E-3
6.875000E-8	5.245052E-3
6.880000E-8	5.291301E-3
6.885000E-8	5.351254E-3
6.890000E-8	5.385513E-3
6.895000E-8	5.447180E-3
6.900000E-8	5.501994E-3
6.905000E-8	5.560234E-3
6.910000E-8	5.630465E-3
6.915000E-8	5.690419E-3
6.920000E-8	5.740094E-3
6.925000E-8	5.770927E-3
6.930000E-8	5.791483E-3
6.935000E-8	5.839445E-3
6.940000E-8	5.895973E-3
6.945000E-8	5.971342E-3
6.950000E-8	6.118656E-3
6.955000E-8	6.267683E-3
6.960000E-8	6.418422E-3
6.965000E-8	6.579440E-3
6.970000E-8	6.731892E-3
6.975000E-8	6.836382E-3
6.980000E-8	6.892910E-3
6.985000E-8	6.886058E-3
6.990000E-8	6.846660E-3
6.995000E-8	6.750735E-3
7.000000E-8	6.611986E-3
7.005000E-8	6.447543E-3
7.010000E-8	6.271109E-3
7.015000E-8	6.092962E-3
7.020000E-8	5.943935E-3
7.025000E-8	5.860001E-3
7.030000E-8	5.805186E-3
7.035000E-8	5.789770E-3
7.040000E-8	5.810325E-3
7.045000E-8	5.815464E-3
7.050000E-8	5.815464E-3
7.055000E-8	5.791483E-3
7.060000E-8	5.757224E-3
7.065000E-8	5.675002E-3
7.070000E-8	5.603058E-3
7.075000E-8	5.493429E-3
7.080000E-8	5.368384E-3
7.085000E-8	5.245052E-3
7.090000E-8	5.087460E-3
7.095000E-8	4.977831E-3
7.100000E-8	4.895610E-3
7.105000E-8	4.816814E-3
7.110000E-8	4.777416E-3
7.115000E-8	4.762000E-3
7.120000E-8	4.789407E-3
7.125000E-8	4.806536E-3
7.130000E-8	4.861351E-3
7.135000E-8	4.895610E-3
7.140000E-8	4.921304E-3
7.145000E-8	4.948711E-3
7.150000E-8	5.001813E-3
7.155000E-8	5.039498E-3
7.160000E-8	5.092599E-3
7.165000E-8	5.147413E-3
7.170000E-8	5.205654E-3
7.175000E-8	5.284449E-3
7.180000E-8	5.378662E-3
7.185000E-8	5.471161E-3
7.190000E-8	5.567086E-3
7.195000E-8	5.688706E-3
7.200000E-8	5.796621E-3
7.205000E-8	5.885695E-3
7.210000E-8	5.985046E-3
7.215000E-8	6.068981E-3
7.220000E-8	6.128934E-3
7.225000E-8	6.128934E-3
7.230000E-8	6.079258E-3
7.235000E-8	5.971342E-3
7.240000E-8	5.837732E-3
7.245000E-8	5.661298E-3
7.250000E-8	5.467735E-3
7.255000E-8	5.226209E-3
7.260000E-8	4.965841E-3
7.265000E-8	4.739731E-3
7.270000E-8	4.522187E-3
7.275000E-8	4.402280E-3
7.280000E-8	4.309781E-3
7.285000E-8	4.265244E-3
7.290000E-8	4.268670E-3
7.295000E-8	4.330336E-3
7.300000E-8	4.424549E-3
7.305000E-8	4.592418E-3
7.310000E-8	4.746583E-3
7.315000E-8	4.899036E-3
7.320000E-8	5.054914E-3
7.325000E-8	5.205654E-3
7.330000E-8	5.293014E-3
7.335000E-8	5.352967E-3
7.340000E-8	5.412921E-3
7.345000E-8	5.438615E-3
7.350000E-8	5.452319E-3
7.355000E-8	5.440328E-3
7.360000E-8	5.445467E-3
7.365000E-8	5.454031E-3
7.370000E-8	5.448893E-3
7.375000E-8	5.442041E-3
7.380000E-8	5.435189E-3
7.385000E-8	5.421485E-3
7.390000E-8	5.394078E-3
7.395000E-8	5.349542E-3
7.400000E-8	5.301579E-3
7.405000E-8	5.233061E-3
7.410000E-8	5.161117E-3
7.415000E-8	5.048062E-3
7.420000E-8	4.955563E-3
7.425000E-8	4.864777E-3
7.430000E-8	4.773990E-3
7.435000E-8	4.734592E-3
7.440000E-8	4.678065E-3
7.445000E-8	4.686630E-3
7.450000E-8	4.681491E-3
7.455000E-8	4.717463E-3
7.460000E-8	4.767139E-3
7.465000E-8	4.775703E-3
7.470000E-8	4.784268E-3
7.475000E-8	4.777416E-3
7.480000E-8	4.736305E-3
7.485000E-8	4.690056E-3
7.490000E-8	4.642093E-3
7.495000E-8	4.614686E-3
7.500000E-8	4.609547E-3
7.505000E-8	4.585566E-3
7.510000E-8	4.573575E-3
7.515000E-8	4.542742E-3
7.520000E-8	4.501631E-3
7.525000E-8	4.458808E-3
7.530000E-8	4.376586E-3
7.535000E-8	4.301216E-3
7.540000E-8	4.241263E-3
7.545000E-8	4.212143E-3
7.550000E-8	4.140199E-3
7.555000E-8	4.087097E-3
7.560000E-8	4.068255E-3
7.565000E-8	4.083671E-3
7.570000E-8	4.121356E-3
7.575000E-8	4.205291E-3
7.580000E-8	4.333762E-3
7.585000E-8	4.494779E-3
7.590000E-8	4.654084E-3
7.595000E-8	4.806536E-3
7.600000E-8	4.904175E-3
7.605000E-8	4.964128E-3
7.610000E-8	5.044636E-3
7.615000E-8	5.046349E-3
7.620000E-8	5.000100E-3
7.625000E-8	4.897323E-3
7.630000E-8	4.796259E-3
7.635000E-8	4.691769E-3
7.640000E-8	4.547881E-3
7.645000E-8	4.424549E-3
7.650000E-8	4.268670E-3
7.655000E-8	4.177884E-3
7.660000E-8	4.088810E-3
7.665000E-8	4.020292E-3
7.670000E-8	3.939784E-3
7.675000E-8	3.912376E-3
7.680000E-8	3.884969E-3
7.685000E-8	3.857562E-3
7.690000E-8	3.866127E-3
7.695000E-8	3.850710E-3
7.700000E-8	3.848997E-3
7.705000E-8	3.847284E-3
7.710000E-8	3.797609E-3
7.715000E-8	3.761637E-3
7.720000E-8	3.718813E-3
7.725000E-8	3.633166E-3
7.730000E-8	3.573212E-3
7.735000E-8	3.513259E-3
7.740000E-8	3.473861E-3
7.745000E-8	3.448167E-3
7.750000E-8	3.487565E-3
7.755000E-8	3.528676E-3
7.760000E-8	3.592055E-3
7.765000E-8	3.699971E-3
7.770000E-8	3.763350E-3
7.775000E-8	3.857562E-3
7.780000E-8	3.951774E-3
7.785000E-8	4.039135E-3
7.790000E-8	4.095662E-3
7.795000E-8	4.111079E-3
7.800000E-8	4.117930E-3
7.805000E-8	4.097375E-3
7.810000E-8	4.040848E-3
7.815000E-8	3.946635E-3
7.820000E-8	3.866127E-3
7.825000E-8	3.789044E-3
7.830000E-8	3.723952E-3
7.835000E-8	3.725665E-3
7.840000E-8	3.737656E-3
7.845000E-8	3.778766E-3
7.850000E-8	3.811312E-3
7.855000E-8	3.893534E-3
7.860000E-8	3.951774E-3
7.865000E-8	4.006589E-3
7.870000E-8	4.025431E-3
7.875000E-8	4.039135E-3
7.880000E-8	4.049412E-3
7.885000E-8	4.013440E-3
7.890000E-8	3.943210E-3
7.895000E-8	3.872979E-3
7.900000E-8	3.802748E-3
7.905000E-8	3.718813E-3
7.910000E-8	3.658860E-3
7.915000E-8	3.590342E-3
7.920000E-8	3.556083E-3
7.925000E-8	3.564648E-3
7.930000E-8	3.619462E-3
7.935000E-8	3.735943E-3
7.940000E-8	3.860988E-3
7.945000E-8	3.991172E-3
7.950000E-8	4.131634E-3
7.955000E-8	4.227559E-3
7.960000E-8	4.321771E-3
7.965000E-8	4.359456E-3
7.970000E-8	4.361169E-3
7.975000E-8	4.302929E-3
7.980000E-8	4.239550E-3
7.985000E-8	4.119643E-3
7.990000E-8	4.006589E-3
7.995000E-8	3.884969E-3
8.000000E-8	3.751359E-3
8.005000E-8	3.621175E-3
8.010000E-8	3.514972E-3
8.015000E-8	3.472148E-3
8.020000E-8	3.479000E-3
8.025000E-8	3.535527E-3
8.030000E-8	3.616036E-3
8.035000E-8	3.710248E-3
8.040000E-8	3.825016E-3
8.045000E-8	3.944922E-3
8.050000E-8	4.068255E-3
8.055000E-8	4.174458E-3
8.060000E-8	4.266957E-3
8.065000E-8	4.321771E-3
8.070000E-8	4.335475E-3
8.075000E-8	4.296077E-3
8.080000E-8	4.237837E-3
8.085000E-8	4.171032E-3
8.090000E-8	4.099088E-3
8.095000E-8	4.013440E-3
8.100000E-8	3.944922E-3
8.105000E-8	3.903812E-3
8.110000E-8	3.900386E-3
8.115000E-8	3.927793E-3
8.120000E-8	3.950061E-3
8.125000E-8	3.982607E-3
8.130000E-8	3.998024E-3
8.135000E-8	4.016866E-3
8.140000E-8	4.052838E-3
8.145000E-8	4.066542E-3
8.150000E-8	4.042561E-3
8.155000E-8	4.004876E-3
8.160000E-8	3.946635E-3
8.165000E-8	3.831868E-3
8.170000E-8	3.710248E-3
8.175000E-8	3.540666E-3
8.180000E-8	3.393353E-3
8.185000E-8	3.266594E-3
8.190000E-8	3.179234E-3
8.195000E-8	3.097012E-3
8.200000E-8	3.097012E-3
8.205000E-8	3.107290E-3
8.210000E-8	3.191224E-3
8.215000E-8	3.288863E-3
8.220000E-8	3.422473E-3
8.225000E-8	3.549231E-3
8.230000E-8	3.713674E-3
8.235000E-8	3.848997E-3
8.240000E-8	3.929506E-3
8.245000E-8	4.015153E-3
8.250000E-8	4.035709E-3
8.255000E-8	4.006589E-3
8.260000E-8	3.936358E-3
8.265000E-8	3.927793E-3
8.270000E-8	3.862701E-3
8.275000E-8	3.811312E-3
8.280000E-8	3.792470E-3
8.285000E-8	3.787331E-3
8.290000E-8	3.792470E-3
8.295000E-8	3.816451E-3
8.300000E-8	3.855849E-3
8.305000E-8	3.864414E-3
8.310000E-8	3.860988E-3
8.315000E-8	3.819877E-3
8.320000E-8	3.775340E-3
8.325000E-8	3.701684E-3
8.330000E-8	3.598907E-3
8.335000E-8	3.441315E-3
8.340000E-8	3.295714E-3
8.345000E-8	3.160391E-3
8.350000E-8	3.038772E-3
8.355000E-8	2.946273E-3
8.360000E-8	2.876042E-3
8.365000E-8	2.894884E-3
8.370000E-8	2.903449E-3
8.375000E-8	2.958263E-3
8.380000E-8	2.963402E-3
8.385000E-8	3.011365E-3
8.390000E-8	3.043911E-3
8.395000E-8	3.047337E-3
8.400000E-8	3.028494E-3
8.405000E-8	3.009652E-3
8.410000E-8	2.987383E-3
8.415000E-8	2.965115E-3
8.420000E-8	2.947986E-3
8.425000E-8	2.934282E-3
8.430000E-8	2.932569E-3
8.435000E-8	2.973680E-3
8.440000E-8	3.038772E-3
8.445000E-8	3.093586E-3
8.450000E-8	3.148401E-3
8.455000E-8	3.215206E-3
8.460000E-8	3.270020E-3
8.465000E-8	3.302566E-3
8.470000E-8	3.353955E-3
8.475000E-8	3.362519E-3
8.480000E-8	3.302566E-3
8.485000E-8	3.264881E-3
8.490000E-8	3.177521E-3
8.495000E-8	3.129558E-3
8.500000E-8	3.076457E-3
8.505000E-8	3.069605E-3
8.510000E-8	3.097012E-3
8.515000E-8	3.098725E-3
8.520000E-8	3.112429E-3
8.525000E-8	3.132984E-3
8.530000E-8	3.174095E-3
8.535000E-8	3.203215E-3
8.540000E-8	3.225483E-3
8.545000E-8	3.225483E-3
8.550000E-8	3.222058E-3
8.555000E-8	3.210067E-3
8.560000E-8	3.196363E-3
8.565000E-8	3.153540E-3
8.570000E-8	3.102151E-3
8.575000E-8	3.023355E-3
8.580000E-8	2.922291E-3
8.585000E-8	2.807524E-3
8.590000E-8	2.709885E-3
8.595000E-8	2.598544E-3
8.600000E-8	2.454656E-3
8.605000E-8	2.348453E-3
8.610000E-8	2.278222E-3
8.615000E-8	2.243963E-3
8.620000E-8	2.238824E-3
8.625000E-8	2.293639E-3
8.630000E-8	2.377573E-3
8.635000E-8	2.466647E-3
8.640000E-8	2.554007E-3
8.645000E-8	2.648219E-3
8.650000E-8	2.733867E-3
8.655000E-8	2.807524E-3
8.660000E-8	2.855486E-3
8.665000E-8	2.903449E-3
8.670000E-8	2.913727E-3
8.675000E-8	2.912014E-3
8.680000E-8	2.850347E-3
8.685000E-8	2.810950E-3
8.690000E-8	2.757848E-3
8.695000E-8	2.689330E-3
8.700000E-8	2.617386E-3
8.705000E-8	2.562572E-3
8.710000E-8	2.502619E-3
8.715000E-8	2.442665E-3
8.720000E-8	2.384425E-3
8.725000E-8	2.336462E-3
8.730000E-8	2.339888E-3
8.735000E-8	2.351879E-3
8.740000E-8	2.379286E-3
8.745000E-8	2.410119E-3
8.750000E-8	2.485489E-3
8.755000E-8	2.526600E-3
8.760000E-8	2.613960E-3
8.765000E-8	2.646506E-3
8.770000E-8	2.718450E-3
8.775000E-8	2.780116E-3
8.780000E-8	2.814375E-3
8.785000E-8	2.834931E-3
8.790000E-8	2.855486E-3
8.795000E-8	2.870903E-3
8.800000E-8	2.872616E-3
8.805000E-8	2.872616E-3
8.810000E-8	2.843496E-3
8.815000E-8	2.812663E-3
8.820000E-8	2.764700E-3
8.825000E-8	2.737293E-3
8.830000E-8	2.677339E-3
8.835000E-8	2.613960E-3
8.840000E-8	2.588266E-3
8.845000E-8	2.562572E-3
8.850000E-8	2.524887E-3
8.855000E-8	2.542016E-3
8.860000E-8	2.567711E-3
8.865000E-8	2.607108E-3
8.870000E-8	2.641367E-3
8.875000E-8	2.718450E-3
8.880000E-8	2.798959E-3
8.885000E-8	2.869190E-3
8.890000E-8	2.901736E-3
8.895000E-8	2.971967E-3
8.900000E-8	3.004513E-3
8.905000E-8	2.989096E-3
8.910000E-8	2.975393E-3
8.915000E-8	2.906875E-3
8.920000E-8	2.821227E-3
8.925000E-8	2.744144E-3
8.930000E-8	2.646506E-3
8.935000E-8	2.536878E-3
8.940000E-8	2.459795E-3
8.945000E-8	2.401554E-3
8.950000E-8	2.363870E-3
8.955000E-8	2.358731E-3
8.960000E-8	2.355305E-3
8.965000E-8	2.363870E-3
8.970000E-8	2.391277E-3
8.975000E-8	2.415258E-3
8.980000E-8	2.459795E-3
8.985000E-8	2.475211E-3
8.990000E-8	2.511183E-3
8.995000E-8	2.548868E-3
9.000000E-8	2.603683E-3
9.005000E-8	2.656784E-3
9.010000E-8	2.706460E-3
9.015000E-8	2.739006E-3
9.020000E-8	2.766413E-3
9.025000E-8	2.761274E-3
9.030000E-8	2.780116E-3
9.035000E-8	2.773265E-3
9.040000E-8	2.780116E-3
9.045000E-8	2.769839E-3
9.050000E-8	2.757848E-3
9.055000E-8	2.728728E-3
9.060000E-8	2.745857E-3
9.065000E-8	2.798959E-3
9.070000E-8	2.831505E-3
9.075000E-8	2.870903E-3
9.080000E-8	2.888032E-3
9.085000E-8	2.886319E-3
9.090000E-8	2.862338E-3
9.095000E-8	2.798959E-3
9.100000E-8	2.728728E-3
9.105000E-8	2.644793E-3
9.110000E-8	2.547155E-3
9.115000E-8	2.452943E-3
9.120000E-8	2.427249E-3
9.125000E-8	2.411832E-3
9.130000E-8	2.451230E-3
9.135000E-8	2.521461E-3
9.140000E-8	2.610534E-3
9.145000E-8	2.697895E-3
9.150000E-8	2.805811E-3
9.155000E-8	2.884606E-3
9.160000E-8	2.913727E-3
9.165000E-8	2.900023E-3
9.170000E-8	2.826366E-3
9.175000E-8	2.704747E-3
9.180000E-8	2.545442E-3
9.185000E-8	2.377573E-3
9.190000E-8	2.219982E-3
9.195000E-8	2.079520E-3
9.200000E-8	1.990446E-3
9.205000E-8	1.954475E-3
9.210000E-8	1.942484E-3
9.215000E-8	2.026418E-3
9.220000E-8	2.110353E-3
9.225000E-8	2.225121E-3
9.230000E-8	2.339888E-3
9.235000E-8	2.420397E-3
9.240000E-8	2.507757E-3
9.245000E-8	2.569424E-3
9.250000E-8	2.588266E-3
9.255000E-8	2.564285E-3
9.260000E-8	2.542016E-3
9.265000E-8	2.497480E-3
9.270000E-8	2.434101E-3
9.275000E-8	2.416971E-3
9.280000E-8	2.427249E-3
9.285000E-8	2.483776E-3
9.290000E-8	2.557433E-3
9.295000E-8	2.600257E-3
9.300000E-8	2.613960E-3
9.305000E-8	2.646506E-3
9.310000E-8	2.658497E-3
9.315000E-8	2.646506E-3
9.320000E-8	2.598544E-3
9.325000E-8	2.509470E-3
9.330000E-8	2.379286E-3
9.335000E-8	2.290213E-3
9.340000E-8	2.197713E-3
9.345000E-8	2.130908E-3
9.350000E-8	2.096649E-3
9.355000E-8	2.072668E-3
9.360000E-8	2.091511E-3
9.365000E-8	2.100075E-3
9.370000E-8	2.124057E-3
9.375000E-8	2.163454E-3
9.380000E-8	2.218269E-3
9.385000E-8	2.250815E-3
9.390000E-8	2.254241E-3
9.395000E-8	2.286787E-3
9.400000E-8	2.279935E-3
9.405000E-8	2.199426E-3
9.410000E-8	2.132621E-3
9.415000E-8	2.062390E-3
9.420000E-8	2.005863E-3
9.425000E-8	1.915077E-3
9.430000E-8	1.843133E-3
9.435000E-8	1.776328E-3
9.440000E-8	1.735217E-3
9.445000E-8	1.742069E-3
9.450000E-8	1.740356E-3
9.455000E-8	1.738643E-3
9.460000E-8	1.759198E-3
9.465000E-8	1.803735E-3
9.470000E-8	1.858549E-3
9.475000E-8	1.920216E-3
9.480000E-8	1.992159E-3
9.485000E-8	2.029844E-3
9.490000E-8	2.077807E-3
9.495000E-8	2.098362E-3
9.500000E-8	2.079520E-3
9.505000E-8	2.086372E-3
9.510000E-8	2.086372E-3
9.515000E-8	2.091511E-3
9.520000E-8	2.076094E-3
9.525000E-8	2.117205E-3
9.530000E-8	2.161741E-3
9.535000E-8	2.202852E-3
9.540000E-8	2.238824E-3
9.545000E-8	2.291926E-3
9.550000E-8	2.310768E-3
9.555000E-8	2.314194E-3
9.560000E-8	2.305629E-3
9.565000E-8	2.266231E-3
9.570000E-8	2.190862E-3
9.575000E-8	2.058964E-3
9.580000E-8	1.897947E-3
9.585000E-8	1.745495E-3
9.590000E-8	1.593042E-3
9.595000E-8	1.478274E-3
9.600000E-8	1.423460E-3
9.605000E-8	1.385775E-3
9.610000E-8	1.413182E-3
9.615000E-8	1.466284E-3
9.620000E-8	1.522811E-3
9.625000E-8	1.574200E-3
9.630000E-8	1.671838E-3
9.635000E-8	1.730078E-3
9.640000E-8	1.784892E-3
9.645000E-8	1.855123E-3
9.650000E-8	1.915077E-3
9.655000E-8	1.947623E-3
9.660000E-8	1.997298E-3
9.665000E-8	2.019567E-3
9.670000E-8	2.028131E-3
9.675000E-8	2.041835E-3
9.680000E-8	2.081233E-3
9.685000E-8	2.101788E-3
9.690000E-8	2.105214E-3
9.695000E-8	2.120631E-3
9.700000E-8	2.082946E-3
9.705000E-8	2.067529E-3
9.710000E-8	2.012715E-3
9.715000E-8	1.933919E-3
9.720000E-8	1.832855E-3
9.725000E-8	1.718087E-3
9.730000E-8	1.598181E-3
9.735000E-8	1.462858E-3
9.740000E-8	1.327535E-3
9.745000E-8	1.216193E-3
9.750000E-8	1.156240E-3
9.755000E-8	1.118555E-3
9.760000E-8	1.115129E-3
9.765000E-8	1.125407E-3
9.770000E-8	1.188786E-3
9.775000E-8	1.233323E-3
9.780000E-8	1.330961E-3
9.785000E-8	1.397766E-3
9.790000E-8	1.500543E-3
9.795000E-8	1.574200E-3
9.800000E-8	1.646144E-3
9.805000E-8	1.654708E-3
9.810000E-8	1.630727E-3
9.815000E-8	1.634153E-3
9.820000E-8	1.587903E-3
9.825000E-8	1.550218E-3
9.830000E-8	1.507395E-3
9.835000E-8	1.503969E-3
9.840000E-8	1.507395E-3
9.845000E-8	1.534802E-3
9.850000E-8	1.623875E-3
9.855000E-8	1.721513E-3
9.860000E-8	1.853410E-3
9.865000E-8	1.927067E-3
9.870000E-8	2.011002E-3
9.875000E-8	2.040122E-3
9.880000E-8	2.043548E-3
9.885000E-8	2.021280E-3
9.890000E-8	1.956187E-3
9.895000E-8	1.860262E-3
9.900000E-8	1.726652E-3
9.905000E-8	1.574200E-3
9.910000E-8	1.414895E-3
9.915000E-8	1.262443E-3
9.920000E-8	1.139110E-3
9.925000E-8	1.051750E-3
9.930000E-8	9.729541E-4
9.935000E-8	9.421210E-4
9.940000E-8	9.421210E-4
9.945000E-8	9.678153E-4
9.950000E-8	1.050037E-3
9.955000E-8	1.075731E-3
9.960000E-8	1.118555E-3
9.965000E-8	1.187073E-3
9.970000E-8	1.276146E-3
9.975000E-8	1.325822E-3
9.980000E-8	1.414895E-3
9.985000E-8	1.553644E-3
9.990000E-8	1.659847E-3
9.995000E-8	1.764337E-3
1.000000E-7	1.875679E-3
1.000500E-7	1.957900E-3
1.001000E-7	1.978456E-3
1.001500E-7	1.997298E-3
1.002000E-7	2.007576E-3
1.002500E-7	1.937345E-3
1.003000E-7	1.865401E-3
1.003500E-7	1.750633E-3
1.004000E-7	1.627301E-3
1.004500E-7	1.522811E-3
1.005000E-7	1.474849E-3
1.005500E-7	1.447441E-3
1.006000E-7	1.416608E-3
1.006500E-7	1.440590E-3
1.007000E-7	1.478274E-3
1.007500E-7	1.478274E-3
1.008000E-7	1.538228E-3
1.008500E-7	1.606746E-3
1.009000E-7	1.652995E-3
1.009500E-7	1.704384E-3
1.010000E-7	1.711236E-3
1.010500E-7	1.721513E-3
1.011000E-7	1.675264E-3
1.011500E-7	1.632440E-3
1.012000E-7	1.610172E-3
1.012500E-7	1.610172E-3
1.013000E-7	1.627301E-3
1.013500E-7	1.658134E-3
1.014000E-7	1.709523E-3
1.014500E-7	1.735217E-3
1.015000E-7	1.766050E-3
1.015500E-7	1.781467E-3
1.016000E-7	1.778041E-3
1.016500E-7	1.736930E-3
1.017000E-7	1.661560E-3
1.017500E-7	1.548505E-3
1.018000E-7	1.428599E-3
1.018500E-7	1.344664E-3
1.019000E-7	1.245313E-3
1.019500E-7	1.145962E-3
1.020000E-7	1.068879E-3
1.020500E-7	9.866577E-4
1.021000E-7	9.318433E-4
1.021500E-7	9.147138E-4
1.022000E-7	8.736030E-4
1.022500E-7	8.530476E-4
1.023000E-7	8.547606E-4
1.023500E-7	8.736030E-4
1.024000E-7	8.855937E-4
1.024500E-7	9.112879E-4
1.025000E-7	9.198527E-4
1.025500E-7	9.369822E-4
1.026000E-7	9.643894E-4
1.026500E-7	9.780930E-4
1.027000E-7	1.046611E-3
1.027500E-7	1.103138E-3
1.028000E-7	1.139110E-3
1.028500E-7	1.214480E-3
1.029000E-7	1.281285E-3
1.029500E-7	1.373784E-3
1.030000E-7	1.467997E-3
1.030500E-7	1.605033E-3
1.031000E-7	1.680403E-3
1.031500E-7	1.759198E-3
1.032000E-7	1.814013E-3
1.032500E-7	1.858549E-3
1.033000E-7	1.863688E-3
1.033500E-7	1.793457E-3
1.034000E-7	1.714662E-3
1.034500E-7	1.617023E-3
1.035000E-7	1.491978E-3
1.035500E-7	1.344664E-3
1.036000E-7	1.226471E-3
1.036500E-7	1.115129E-3
1.037000E-7	1.048324E-3
1.037500E-7	1.012352E-3
1.038000E-7	1.000361E-3
1.038500E-7	1.010639E-3
1.039000E-7	1.055176E-3
1.039500E-7	1.108277E-3
1.040000E-7	1.192212E-3
1.040500E-7	1.216193E-3
1.041000E-7	1.243600E-3
1.041500E-7	1.257304E-3
1.042000E-7	1.200777E-3
1.042500E-7	1.173369E-3
1.043000E-7	1.097999E-3
1.043500E-7	1.043185E-3
1.044000E-7	9.969354E-4
1.044500E-7	9.164268E-4
1.045000E-7	8.684642E-4
1.045500E-7	8.650383E-4
1.046000E-7	8.787419E-4
1.046500E-7	9.386951E-4
1.047000E-7	1.015778E-3
1.047500E-7	1.068879E-3
1.048000E-7	1.123694E-3
1.048500E-7	1.188786E-3
1.049000E-7	1.231610E-3
1.049500E-7	1.260730E-3
1.050000E-7	1.279572E-3
1.050500E-7	1.279572E-3
1.051000E-7	1.269295E-3
1.051500E-7	1.245313E-3
1.052000E-7	1.221332E-3
1.052500E-7	1.181934E-3
1.053000E-7	1.115129E-3
1.053500E-7	1.082583E-3
1.054000E-7	1.075731E-3
1.054500E-7	1.070592E-3
1.055000E-7	1.068879E-3
1.055500E-7	1.074018E-3
1.056000E-7	1.079157E-3
1.056500E-7	1.103138E-3
1.057000E-7	1.156240E-3
1.057500E-7	1.187073E-3
1.058000E-7	1.243600E-3
1.058500E-7	1.315544E-3
1.059000E-7	1.389201E-3
1.059500E-7	1.454293E-3
1.060000E-7	1.536515E-3
1.060500E-7	1.594755E-3
1.061000E-7	1.639292E-3
1.061500E-7	1.664986E-3
1.062000E-7	1.663273E-3
1.062500E-7	1.625588E-3
1.063000E-7	1.572487E-3
1.063500E-7	1.502256E-3
1.064000E-7	1.387488E-3
1.064500E-7	1.259017E-3
1.065000E-7	1.094574E-3
1.065500E-7	9.489728E-4
1.066000E-7	8.016591E-4
1.066500E-7	6.355030E-4
1.067000E-7	4.916152E-4
1.067500E-7	3.614310E-4
1.068000E-7	2.380986E-4
1.068500E-7	1.438863E-4
1.069000E-7	7.708127E-5
1.069500E-7	5.652587E-5
1.070000E-7	4.796112E-5
1.070500E-7	4.624817E-5
1.071000E-7	6.166472E-5
1.071500E-7	1.336086E-4
1.072000E-7	2.226820E-4
1.072500E-7	3.699957E-4
1.073000E-7	4.916152E-4
1.073500E-7	6.337900E-4
1.074000E-7	7.536965E-4
1.074500E-7	8.564735E-4
1.075000E-7	9.729541E-4
1.075500E-7	1.044898E-3
1.076000E-7	1.130546E-3
1.076500E-7	1.183647E-3
1.077000E-7	1.211054E-3
1.077500E-7	1.235036E-3
1.078000E-7	1.248739E-3
1.078500E-7	1.217906E-3
1.079000E-7	1.188786E-3
1.079500E-7	1.142536E-3
1.080000E-7	1.103138E-3
1.080500E-7	1.055176E-3
1.081000E-7	9.917966E-4
1.081500E-7	8.975843E-4
1.082000E-7	8.187886E-4
1.082500E-7	7.314282E-4
1.083000E-7	6.440677E-4
1.083500E-7	6.029569E-4
1.084000E-7	5.875404E-4
1.084500E-7	5.841145E-4
1.085000E-7	5.926792E-4
1.085500E-7	6.012440E-4
1.086000E-7	6.166605E-4
1.086500E-7	6.337900E-4
1.087000E-7	6.183735E-4
1.087500E-7	5.858274E-4
1.088000E-7	5.601332E-4
1.088500E-7	5.241612E-4
1.089000E-7	4.933281E-4
1.089500E-7	4.265231E-4
1.090000E-7	3.768475E-4
1.090500E-7	3.237461E-4
1.091000E-7	2.843482E-4
1.091500E-7	2.620799E-4
1.092000E-7	2.929130E-4
1.092500E-7	3.374497E-4
1.093000E-7	4.042547E-4
1.093500E-7	4.881893E-4
1.094000E-7	5.875404E-4
1.094500E-7	6.697620E-4
1.095000E-7	7.554095E-4
1.095500E-7	7.965203E-4
1.096000E-7	8.307793E-4
1.096500E-7	8.239275E-4
1.097000E-7	8.050850E-4
1.097500E-7	7.776778E-4
1.098000E-7	7.314282E-4
1.098500E-7	6.800397E-4
1.099000E-7	6.235123E-4
1.099500E-7	5.772627E-4
1.100000E-7	5.755497E-4
1.100500E-7	6.200864E-4
1.101000E-7	6.714749E-4
1.101500E-7	7.417059E-4
1.102000E-7	8.256404E-4
1.102500E-7	9.044361E-4
1.103000E-7	9.883707E-4
1.103500E-7	1.074018E-3
1.104000E-7	1.154527E-3
1.104500E-7	1.195638E-3
1.105000E-7	1.233323E-3
1.105500E-7	1.235036E-3
1.106000E-7	1.245313E-3
1.106500E-7	1.214480E-3
1.107000E-7	1.147675E-3
1.107500E-7	1.084296E-3
1.108000E-7	1.020917E-3
1.108500E-7	9.643894E-4
1.109000E-7	9.095750E-4
1.109500E-7	8.307793E-4
1.110000E-7	7.605483E-4
1.110500E-7	7.074469E-4
1.111000E-7	6.337900E-4
1.111500E-7	6.029569E-4
1.112000E-7	5.567073E-4
1.112500E-7	5.087447E-4
1.113000E-7	4.813375E-4
1.113500E-7	4.590691E-4
1.114000E-7	4.059677E-4
1.114500E-7	3.477274E-4
1.115000E-7	3.545792E-4
1.115500E-7	3.682828E-4
1.116000E-7	3.871252E-4
1.116500E-7	4.093936E-4
1.117000E-7	4.779116E-4
1.117500E-7	5.721238E-4
1.118000E-7	6.937433E-4
1.118500E-7	7.468447E-4
1.119000E-7	8.033721E-4
1.119500E-7	8.530476E-4
1.120000E-7	8.598994E-4
1.120500E-7	8.393440E-4
1.121000E-7	7.982332E-4
1.121500E-7	7.639742E-4
1.122000E-7	7.468447E-4
1.122500E-7	7.108728E-4
1.123000E-7	6.920303E-4
1.123500E-7	6.937433E-4
1.124000E-7	6.800397E-4
1.124500E-7	6.749008E-4
1.125000E-7	6.937433E-4
1.125500E-7	6.971692E-4
1.126000E-7	6.920303E-4
1.126500E-7	6.543454E-4
1.127000E-7	6.611972E-4
1.127500E-7	6.372159E-4
1.128000E-7	6.046699E-4
1.128500E-7	5.601332E-4
1.129000E-7	5.293001E-4
1.129500E-7	5.275871E-4
1.130000E-7	5.070317E-4
1.130500E-7	5.036058E-4
1.131000E-7	5.395778E-4
1.131500E-7	5.978181E-4
1.132000E-7	6.235123E-4
1.132500E-7	6.766138E-4
1.133000E-7	7.228634E-4
1.133500E-7	7.382800E-4
1.134000E-7	7.348541E-4
1.134500E-7	7.399929E-4
1.135000E-7	7.502706E-4
1.135500E-7	7.571224E-4
1.136000E-7	7.485577E-4
1.136500E-7	7.382800E-4
1.137000E-7	7.108728E-4
1.137500E-7	6.646231E-4
1.138000E-7	6.269382E-4
1.138500E-7	5.909663E-4
1.139000E-7	5.532814E-4
1.139500E-7	4.693468E-4
1.140000E-7	3.751346E-4
1.140500E-7	2.535151E-4
1.141000E-7	1.935619E-4
1.141500E-7	1.455993E-4
1.142000E-7	8.564602E-5
1.142500E-7	5.652587E-5
1.143000E-7	4.624817E-5
1.143500E-7	8.564602E-5
1.144000E-7	9.763667E-5
1.144500E-7	1.301827E-4
1.145000E-7	1.730065E-4
1.145500E-7	2.106914E-4
1.146000E-7	2.312468E-4
1.146500E-7	2.363856E-4
1.147000E-7	2.706446E-4
1.147500E-7	3.100425E-4
1.148000E-7	3.271720E-4
1.148500E-7	3.494403E-4
1.149000E-7	3.717087E-4
1.149500E-7	3.939770E-4
1.150000E-7	4.453655E-4
1.150500E-7	4.899022E-4
1.151000E-7	5.481425E-4
1.151500E-7	5.892533E-4
1.152000E-7	6.320771E-4
1.152500E-7	6.629102E-4
1.153000E-7	7.091598E-4
1.153500E-7	7.245764E-4
1.154000E-7	7.125857E-4
1.154500E-7	6.783267E-4
1.155000E-7	6.543454E-4
1.155500E-7	6.046699E-4
1.156000E-7	5.515684E-4
1.156500E-7	5.155965E-4
1.157000E-7	4.659209E-4
1.157500E-7	4.419396E-4
1.158000E-7	4.505044E-4
1.158500E-7	4.248101E-4
1.159000E-7	4.042547E-4
1.159500E-7	4.111065E-4
1.160000E-7	4.111065E-4
1.160500E-7	3.836993E-4
1.161000E-7	3.545792E-4
1.161500E-7	3.340238E-4
1.162000E-7	2.569410E-4
1.162500E-7	1.593029E-4
1.163000E-7	4.624817E-5
1.163500E-7	6.850316E-6
1.164000E-7	-4.453819E-5
1.164500E-7	-2.912163E-5
1.165000E-7	4.967407E-5
1.165500E-7	1.199050E-4
1.166000E-7	2.295338E-4
1.166500E-7	3.477274E-4
1.167000E-7	4.796245E-4
1.167500E-7	6.132346E-4
1.168000E-7	7.331411E-4
1.168500E-7	8.136498E-4
1.169000E-7	8.359181E-4
1.169500E-7	8.581865E-4
1.170000E-7	7.896685E-4
1.170500E-7	7.245764E-4
1.171000E-7	6.286512E-4
1.171500E-7	5.018929E-4
1.172000E-7	3.871252E-4
1.172500E-7	3.271720E-4
1.173000E-7	3.117554E-4
1.173500E-7	3.391626E-4
1.174000E-7	4.230972E-4
1.174500E-7	5.087447E-4
1.175000E-7	6.183735E-4
1.175500E-7	6.903174E-4
1.176000E-7	7.485577E-4
1.176500E-7	8.016591E-4
1.177000E-7	8.324922E-4
1.177500E-7	8.479088E-4
1.178000E-7	7.896685E-4
1.178500E-7	7.434188E-4
1.179000E-7	6.783267E-4
1.179500E-7	6.046699E-4
1.180000E-7	5.224483E-4
1.180500E-7	4.659209E-4
1.181000E-7	4.282360E-4
1.181500E-7	3.768475E-4
1.182000E-7	3.545792E-4
1.182500E-7	3.117554E-4
1.183000E-7	3.100425E-4
1.183500E-7	2.946259E-4
1.184000E-7	2.432374E-4
1.184500E-7	2.278209E-4
1.185000E-7	2.432374E-4
1.185500E-7	2.432374E-4
1.186000E-7	2.569410E-4
1.186500E-7	2.637928E-4
1.187000E-7	2.843482E-4
1.187500E-7	2.963389E-4
1.188000E-7	3.168943E-4
1.188500E-7	3.254590E-4
1.189000E-7	3.288849E-4
1.189500E-7	3.151813E-4
1.190000E-7	2.877741E-4
1.190500E-7	2.380986E-4
1.191000E-7	1.832842E-4
1.191500E-7	1.695806E-4
1.192000E-7	1.764324E-4
1.192500E-7	1.712935E-4
1.193000E-7	1.730065E-4
1.193500E-7	1.849971E-4
1.194000E-7	2.141173E-4
1.194500E-7	2.655058E-4
1.195000E-7	2.843482E-4
1.195500E-7	3.083295E-4
1.196000E-7	2.689317E-4
1.196500E-7	2.072655E-4
1.197000E-7	1.455993E-4
1.197500E-7	8.050717E-5
1.198000E-7	2.397982E-5
1.198500E-7	-5.138999E-5
1.199000E-7	-9.935259E-5
1.199500E-7	-1.130562E-4
1.200000E-7	-1.079173E-4
1.200500E-7	-8.907489E-5
1.201000E-7	-8.907489E-5
1.201500E-7	-3.597343E-5
1.202000E-7	1.711466E-6
1.202500E-7	6.337767E-5
1.203000E-7	1.575899E-4
1.203500E-7	2.243950E-4
1.204000E-7	2.655058E-4
1.204500E-7	3.100425E-4
1.205000E-7	3.151813E-4
1.205500E-7	3.100425E-4
1.206000E-7	3.049036E-4
1.206500E-7	3.031907E-4
1.207000E-7	2.843482E-4
1.207500E-7	2.192561E-4
1.208000E-7	1.678676E-4
1.208500E-7	9.249782E-5
1.209000E-7	8.563266E-6
1.209500E-7	-6.166769E-5
1.210000E-7	-1.558799E-4
1.210500E-7	-2.466663E-4
1.211000E-7	-3.083325E-4
1.211500E-7	-3.357397E-4
1.212000E-7	-3.648598E-4
1.212500E-7	-3.614339E-4
1.213000E-7	-3.580080E-4
1.213500E-7	-3.117584E-4
1.214000E-7	-2.312497E-4
1.214500E-7	-1.147691E-4
1.215000E-7	-2.055688E-5
1.215500E-7	8.222012E-5
1.216000E-7	1.832842E-4
1.216500E-7	2.946259E-4
1.217000E-7	3.648569E-4
1.217500E-7	4.111065E-4
1.218000E-7	4.196713E-4
1.218500E-7	3.939770E-4
1.219000E-7	3.699957E-4
1.219500E-7	3.305979E-4
1.220000E-7	2.415245E-4
1.220500E-7	1.747194E-4
1.221000E-7	1.199050E-4
1.221500E-7	3.254457E-5
1.222000E-7	-2.398278E-5
1.222500E-7	-8.736194E-5
1.223000E-7	-1.438893E-4
1.223500E-7	-1.987037E-4
1.224000E-7	-2.175461E-4
1.224500E-7	-2.295368E-4
1.225000E-7	-1.832871E-4
1.225500E-7	-1.438893E-4
1.226000E-7	-3.597343E-5
1.226500E-7	5.481292E-5
1.227000E-7	1.507381E-4
1.227500E-7	2.346727E-4
1.228000E-7	3.168943E-4
1.228500E-7	4.093936E-4
1.229000E-7	4.659209E-4
1.229500E-7	5.327260E-4
1.230000E-7	5.515684E-4
1.230500E-7	5.686979E-4
1.231000E-7	5.327260E-4
1.231500E-7	4.813375E-4
1.232000E-7	3.734216E-4
1.232500E-7	2.792094E-4
1.233000E-7	1.935619E-4
1.233500E-7	1.233309E-4
1.234000E-7	3.768342E-5
1.234500E-7	-6.853284E-6
1.235000E-7	-1.199213E-5
1.235500E-7	-5.995474E-5
1.236000E-7	-1.370508E-5
1.236500E-7	4.282227E-5
1.237000E-7	1.318957E-4
1.237500E-7	2.089784E-4
1.238000E-7	2.946259E-4
1.238500E-7	3.768475E-4
1.239000E-7	4.522173E-4
1.239500E-7	5.241612E-4
1.240000E-7	6.149476E-4
1.240500E-7	6.731879E-4
1.241000E-7	6.749008E-4
1.241500E-7	6.457807E-4
1.242000E-7	5.909663E-4
1.242500E-7	5.087447E-4
1.243000E-7	3.785605E-4
1.243500E-7	2.380986E-4
1.244000E-7	1.010626E-4
1.244500E-7	-4.111229E-5
1.245000E-7	-1.935648E-4
1.245500E-7	-2.809253E-4
1.246000E-7	-3.785634E-4
1.246500E-7	-4.282390E-4
1.247000E-7	-4.522203E-4
1.247500E-7	-4.333778E-4
1.248000E-7	-3.768505E-4
1.248500E-7	-3.374526E-4
1.249000E-7	-2.997677E-4
1.249500E-7	-2.312497E-4
1.250000E-7	-1.627317E-4
1.250500E-7	-7.537129E-5
1.251000E-7	-8.566234E-6
1.251500E-7	6.851652E-5
1.252000E-7	1.627288E-4
1.252500E-7	2.124043E-4
1.253000E-7	2.278209E-4
1.253500E-7	2.243950E-4
1.254000E-7	2.415245E-4
1.254500E-7	2.826353E-4
1.255000E-7	3.134684E-4
1.255500E-7	3.751346E-4
1.256000E-7	4.265231E-4
1.256500E-7	4.676339E-4
1.257000E-7	5.070317E-4
1.257500E-7	5.567073E-4
1.258000E-7	5.755497E-4
1.258500E-7	5.926792E-4
1.259000E-7	6.115217E-4
1.259500E-7	5.858274E-4
1.260000E-7	5.652720E-4
1.260500E-7	5.755497E-4
1.261000E-7	5.447166E-4
1.261500E-7	5.327260E-4
1.262000E-7	5.104576E-4
1.262500E-7	4.744857E-4
1.263000E-7	4.093936E-4
1.263500E-7	3.665698E-4
1.264000E-7	2.946259E-4
1.264500E-7	2.261079E-4
1.265000E-7	1.627288E-4
1.265500E-7	1.301827E-4
1.266000E-7	6.166472E-5
1.266500E-7	-1.370508E-5
1.267000E-7	-5.995474E-5
1.267500E-7	-7.194539E-5
1.268000E-7	-5.824179E-5
1.268500E-7	-3.426048E-5
1.269000E-7	8.563266E-6
1.269500E-7	7.022947E-5
1.270000E-7	1.387475E-4
1.270500E-7	2.021266E-4
1.271000E-7	2.620799E-4
1.271500E-7	3.083295E-4
1.272000E-7	3.391626E-4
1.272500E-7	3.357367E-4
1.273000E-7	2.826353E-4
1.273500E-7	2.312468E-4
1.274000E-7	1.849971E-4
1.274500E-7	1.216180E-4
1.275000E-7	3.768342E-5
1.275500E-7	-4.111229E-5
1.276000E-7	-9.250079E-5
1.276500E-7	-1.404634E-4
1.277000E-7	-1.318986E-4
1.277500E-7	-1.267598E-4
1.278000E-7	-7.537129E-5
1.278500E-7	-2.912163E-5
1.279000E-7	3.939637E-5
1.279500E-7	1.062014E-4
1.280000E-7	1.575899E-4
1.280500E-7	2.158302E-4
1.281000E-7	2.124043E-4
1.281500E-7	2.329597E-4
1.282000E-7	2.192561E-4
1.282500E-7	2.312468E-4
1.283000E-7	2.175432E-4
1.283500E-7	2.072655E-4
1.284000E-7	1.610158E-4
1.284500E-7	1.558770E-4
1.285000E-7	1.644417E-4
1.285500E-7	1.507381E-4
1.286000E-7	1.695806E-4
1.286500E-7	1.849971E-4
1.287000E-7	1.867101E-4
1.287500E-7	1.541640E-4
1.288000E-7	1.062014E-4
1.288500E-7	1.884097E-5
1.289000E-7	-8.222309E-5
1.289500E-7	-1.918519E-4
1.290000E-7	-3.083325E-4
1.290500E-7	-4.539332E-4
1.291000E-7	-6.080988E-4
1.291500E-7	-7.074499E-4
1.292000E-7	-8.119398E-4
1.292500E-7	-8.873096E-4
1.293000E-7	-9.284204E-4
1.293500E-7	-8.787449E-4
1.294000E-7	-7.999492E-4
1.294500E-7	-6.731909E-4
1.295000E-7	-5.190253E-4
1.295500E-7	-3.528692E-4
1.296000E-7	-1.850001E-4
1.296500E-7	-3.768638E-5
1.297000E-7	7.708127E-5
1.297500E-7	1.987007E-4
1.298000E-7	2.552281E-4
1.298500E-7	2.723576E-4
1.299000E-7	2.740705E-4
1.299500E-7	2.963389E-4
1.300000E-7	3.168943E-4
1.300500E-7	3.391626E-4
1.301000E-7	3.854123E-4
1.301500E-7	4.299490E-4
1.302000E-7	4.642080E-4
1.302500E-7	5.138835E-4
1.303000E-7	5.652720E-4
1.303500E-7	5.755497E-4
1.304000E-7	5.652720E-4
1.304500E-7	5.207353E-4
1.305000E-7	4.333749E-4
1.305500E-7	3.271720E-4
1.306000E-7	1.781453E-4
1.306500E-7	5.138702E-5
1.307000E-7	-9.250079E-5
1.307500E-7	-2.158332E-4
1.308000E-7	-2.689346E-4
1.308500E-7	-3.340267E-4
1.309000E-7	-3.220361E-4
1.309500E-7	-2.946289E-4
1.310000E-7	-2.449533E-4
1.310500E-7	-1.712965E-4
1.311000E-7	-1.524540E-4
1.311500E-7	-1.079173E-4
1.312000E-7	-1.318986E-4
1.312500E-7	-1.541670E-4
1.313000E-7	-2.089814E-4
1.313500E-7	-2.620828E-4
1.314000E-7	-3.220361E-4
1.314500E-7	-3.854152E-4
1.315000E-7	-4.727757E-4
1.315500E-7	-5.310160E-4
1.316000E-7	-5.789786E-4
1.316500E-7	-6.063858E-4
1.317000E-7	-5.738398E-4
1.317500E-7	-5.224512E-4
1.318000E-7	-4.590721E-4
1.318500E-7	-3.871282E-4
1.319000E-7	-2.843512E-4
1.319500E-7	-1.575929E-4
1.320000E-7	-6.338064E-5
1.320500E-7	1.884097E-5
1.321000E-7	1.044885E-4
1.321500E-7	1.918489E-4
1.322000E-7	2.552281E-4
1.322500E-7	3.665698E-4
1.323000E-7	4.402267E-4
1.323500E-7	5.224483E-4
1.324000E-7	5.772627E-4
1.324500E-7	6.080958E-4
1.325000E-7	6.166605E-4
1.325500E-7	5.789756E-4
1.326000E-7	5.498555E-4
1.326500E-7	4.676339E-4
1.327000E-7	3.597180E-4
1.327500E-7	2.346727E-4
1.328000E-7	8.907192E-5
1.328500E-7	-6.509359E-5
1.329000E-7	-2.243979E-4
1.329500E-7	-3.785634E-4
1.330000E-7	-5.293030E-4
1.330500E-7	-6.063858E-4
1.331000E-7	-6.749038E-4
1.331500E-7	-7.057369E-4
1.332000E-7	-6.783297E-4
1.332500E-7	-5.738398E-4
1.333000E-7	-4.213872E-4
1.333500E-7	-2.706476E-4
1.334000E-7	-1.062044E-4
1.334500E-7	4.453522E-5
1.335000E-7	1.832842E-4
1.335500E-7	2.620799E-4
1.336000E-7	3.186072E-4
1.336500E-7	3.254590E-4
1.337000E-7	3.168943E-4
1.337500E-7	2.912000E-4
1.338000E-7	2.500892E-4
1.338500E-7	1.712935E-4
1.339000E-7	1.233309E-4
1.339500E-7	8.564602E-5
1.340000E-7	6.680357E-5
1.340500E-7	5.481292E-5
1.341000E-7	6.680357E-5
1.341500E-7	8.393307E-5
1.342000E-7	1.233309E-4
1.342500E-7	1.678676E-4
1.343000E-7	1.764324E-4
1.343500E-7	1.678676E-4
1.344000E-7	1.661547E-4
1.344500E-7	1.747194E-4
1.345000E-7	1.987007E-4
1.345500E-7	1.918489E-4
1.346000E-7	1.884230E-4
1.346500E-7	1.781453E-4
1.347000E-7	1.661547E-4
1.347500E-7	1.336086E-4
1.348000E-7	1.267568E-4
1.348500E-7	1.130532E-4
1.349000E-7	8.393307E-5
1.349500E-7	2.226687E-5
1.350000E-7	-3.597343E-5
1.350500E-7	-1.079173E-4
1.351000E-7	-1.541670E-4
1.351500E-7	-2.312497E-4
1.352000E-7	-3.203231E-4
1.352500E-7	-4.093965E-4
1.353000E-7	-4.522203E-4
1.353500E-7	-4.659239E-4
1.354000E-7	-4.642109E-4
1.354500E-7	-4.299519E-4
1.355000E-7	-4.111095E-4
1.355500E-7	-4.128224E-4
1.356000E-7	-3.545821E-4
1.356500E-7	-2.912030E-4
1.357000E-7	-1.850001E-4
1.357500E-7	-1.130562E-4
1.358000E-7	-2.226983E-5
1.358500E-7	8.735897E-5
1.359000E-7	1.507381E-4
1.359500E-7	2.192561E-4
1.360000E-7	2.723576E-4
1.360500E-7	2.637928E-4
1.361000E-7	2.432374E-4
1.361500E-7	2.089784E-4
1.362000E-7	1.678676E-4
1.362500E-7	9.763667E-5
1.363000E-7	8.050717E-5
1.363500E-7	4.624817E-5
1.364000E-7	2.740572E-5
1.364500E-7	-1.199213E-5
1.365000E-7	-1.884393E-5
1.365500E-7	-2.912163E-5
1.366000E-7	-4.796409E-5
1.366500E-7	-9.592669E-5
1.367000E-7	-1.456022E-4
1.367500E-7	-2.226850E-4
1.368000E-7	-3.785634E-4
1.368500E-7	-5.155994E-4
1.369000E-7	-6.474966E-4
1.369500E-7	-7.571254E-4
1.370000E-7	-8.564765E-4
1.370500E-7	-8.701801E-4
1.371000E-7	-8.633283E-4
1.371500E-7	-8.187916E-4
1.372000E-7	-6.783297E-4
1.372500E-7	-5.549973E-4
1.373000E-7	-3.871282E-4
1.373500E-7	-2.723605E-4
1.374000E-7	-1.164821E-4
1.374500E-7	-6.853284E-6
1.375000E-7	6.851652E-5
1.375500E-7	6.851652E-5
1.376000E-7	3.768342E-5
1.376500E-7	8.563266E-6
1.377000E-7	-8.564899E-5
1.377500E-7	-1.815742E-4
1.378000E-7	-3.066195E-4
1.378500E-7	-4.231001E-4
1.379000E-7	-4.967570E-4
1.379500E-7	-5.601362E-4
1.380000E-7	-5.721268E-4
1.380500E-7	-5.806916E-4
1.381000E-7	-5.447196E-4
1.381500E-7	-4.710627E-4
1.382000E-7	-3.837023E-4
1.382500E-7	-3.151843E-4
1.383000E-7	-2.466663E-4
1.383500E-7	-1.284727E-4
1.384000E-7	-6.338064E-5
1.384500E-7	1.711466E-6
1.385000E-7	3.939637E-5
1.385500E-7	4.110932E-5
1.386000E-7	8.563266E-6
1.386500E-7	-2.055688E-5
1.387000E-7	-9.935259E-5
1.387500E-7	-1.695835E-4
1.388000E-7	-2.312497E-4
1.388500E-7	-3.031936E-4
1.389000E-7	-3.408785E-4
1.389500E-7	-3.271749E-4
1.390000E-7	-2.809253E-4
1.390500E-7	-2.141202E-4
1.391000E-7	-9.421374E-5
1.391500E-7	-2.912163E-5
1.392000E-7	6.166472E-5
1.392500E-7	1.387475E-4
1.393000E-7	1.935619E-4
1.393500E-7	2.021266E-4
1.394000E-7	2.106914E-4
1.394500E-7	1.661547E-4
1.395000E-7	9.763667E-5
1.395500E-7	6.337767E-5
1.396000E-7	1.198917E-5
1.396500E-7	-3.939934E-5
1.397000E-7	-8.051014E-5
1.397500E-7	-1.284727E-4
1.398000E-7	-1.199080E-4
1.398500E-7	-1.130562E-4
1.399000E-7	-7.365834E-5
1.399500E-7	-5.824179E-5
1.400000E-7	-6.338064E-5
1.400500E-7	-7.537129E-5
1.401000E-7	-1.113432E-4
1.401500E-7	-1.730094E-4
1.402000E-7	-2.637958E-4
1.402500E-7	-3.425915E-4
1.403000E-7	-4.196742E-4
1.403500E-7	-4.864793E-4
1.404000E-7	-5.053217E-4
1.404500E-7	-5.155994E-4
1.405000E-7	-4.864793E-4
1.405500E-7	-4.402296E-4
1.406000E-7	-3.648598E-4
1.406500E-7	-2.894900E-4
1.407000E-7	-2.209720E-4
1.407500E-7	-1.336116E-4
1.408000E-7	-9.935259E-5
1.408500E-7	-7.365834E-5
1.409000E-7	-6.338064E-5
1.409500E-7	-7.194539E-5
1.410000E-7	-1.284727E-4
1.410500E-7	-1.815742E-4
1.411000E-7	-2.483792E-4
1.411500E-7	-3.288879E-4
1.412000E-7	-3.991188E-4
1.412500E-7	-4.916181E-4
1.413000E-7	-5.858304E-4
1.413500E-7	-6.646261E-4
1.414000E-7	-6.920333E-4
1.414500E-7	-7.125887E-4
1.415000E-7	-7.057369E-4
1.415500E-7	-7.074499E-4
1.416000E-7	-6.423578E-4
1.416500E-7	-5.652750E-4
1.417000E-7	-4.676368E-4
1.417500E-7	-3.374526E-4
1.418000E-7	-2.552310E-4
1.418500E-7	-1.832871E-4
1.419000E-7	-1.199080E-4
1.419500E-7	-5.824179E-5
1.420000E-7	-4.453819E-5
1.420500E-7	-3.426048E-5
1.421000E-7	-6.166769E-5
1.421500E-7	-1.250468E-4
1.422000E-7	-1.935648E-4
1.422500E-7	-2.466663E-4
1.423000E-7	-3.014807E-4
1.423500E-7	-3.597210E-4
1.424000E-7	-3.974059E-4
1.424500E-7	-4.676368E-4
1.425000E-7	-5.155994E-4
1.425500E-7	-5.412937E-4
1.426000E-7	-5.001829E-4
1.426500E-7	-4.299519E-4
1.427000E-7	-3.254620E-4
1.427500E-7	-1.969907E-4
1.428000E-7	-5.310294E-5
1.428500E-7	7.022947E-5
1.429000E-7	1.832842E-4
1.429500E-7	2.946259E-4
1.430000E-7	3.305979E-4
1.430500E-7	3.648569E-4
1.431000E-7	3.374497E-4
1.431500E-7	2.500892E-4
1.432000E-7	1.370345E-4
1.432500E-7	2.226687E-5
1.433000E-7	-9.250079E-5
1.433500E-7	-2.278238E-4
1.434000E-7	-3.220361E-4
1.434500E-7	-4.042577E-4
1.435000E-7	-4.231001E-4
1.435500E-7	-4.111095E-4
1.436000E-7	-3.477303E-4
1.436500E-7	-2.894900E-4
1.437000E-7	-2.141202E-4
1.437500E-7	-1.284727E-4
1.438000E-7	-2.740868E-5
1.438500E-7	3.425752E-5
1.439000E-7	9.249782E-5
1.439500E-7	1.044885E-4
1.440000E-7	9.592372E-5
1.440500E-7	1.181921E-4
1.441000E-7	9.592372E-5
1.441500E-7	7.708127E-5
1.442000E-7	5.995177E-5
1.442500E-7	8.050717E-5
1.443000E-7	7.708127E-5
1.443500E-7	1.404604E-4
1.444000E-7	1.952748E-4
1.444500E-7	2.569410E-4
1.445000E-7	2.843482E-4
1.445500E-7	2.912000E-4
1.446000E-7	3.014777E-4
1.446500E-7	2.963389E-4
1.447000E-7	2.706446E-4
1.447500E-7	2.518022E-4
1.448000E-7	2.363856E-4
1.448500E-7	2.158302E-4
1.449000E-7	1.849971E-4
1.449500E-7	1.935619E-4
1.450000E-7	2.192561E-4
1.450500E-7	2.620799E-4
1.451000E-7	3.186072E-4
1.451500E-7	3.751346E-4
1.452000E-7	4.162454E-4
1.452500E-7	4.470785E-4
1.453000E-7	4.676339E-4
1.453500E-7	4.624950E-4
1.454000E-7	4.093936E-4
1.454500E-7	3.271720E-4
1.455000E-7	2.124043E-4
1.455500E-7	6.509062E-5
1.456000E-7	-6.509359E-5
1.456500E-7	-1.627317E-4
1.457000E-7	-2.894900E-4
1.457500E-7	-3.837023E-4
1.458000E-7	-4.642109E-4
1.458500E-7	-5.224512E-4
1.459000E-7	-5.464326E-4
1.459500E-7	-5.549973E-4
1.460000E-7	-5.344419E-4
1.460500E-7	-4.950440E-4
1.461000E-7	-4.642109E-4
1.461500E-7	-4.008318E-4
1.462000E-7	-3.357397E-4
1.462500E-7	-2.226850E-4
1.463000E-7	-1.181950E-4
1.463500E-7	-2.226983E-5
1.464000E-7	4.967407E-5
1.464500E-7	1.610158E-4
1.465000E-7	2.637928E-4
1.465500E-7	2.929130E-4
1.466000E-7	2.946259E-4
1.466500E-7	2.655058E-4
1.467000E-7	2.141173E-4
1.467500E-7	1.130532E-4
1.468000E-7	4.110932E-5
1.468500E-7	-5.310294E-5
1.469000E-7	-1.233339E-4
1.469500E-7	-1.507411E-4
1.470000E-7	-1.730094E-4
1.470500E-7	-2.004166E-4
1.471000E-7	-1.884260E-4
1.471500E-7	-1.610188E-4
1.472000E-7	-1.267598E-4
1.472500E-7	-1.147691E-4
1.473000E-7	-9.763964E-5
1.473500E-7	-8.907489E-5
1.474000E-7	-8.736194E-5
1.474500E-7	-1.164821E-4
1.475000E-7	-1.284727E-4
1.475500E-7	-2.055555E-4
1.476000E-7	-2.809253E-4
1.476500E-7	-3.837023E-4
1.477000E-7	-5.036088E-4
1.477500E-7	-6.286542E-4
1.478000E-7	-6.937463E-4
1.478500E-7	-7.571254E-4
1.479000E-7	-8.136528E-4
1.479500E-7	-8.599024E-4
1.480000E-7	-8.701801E-4
1.480500E-7	-8.307823E-4
1.481000E-7	-7.708290E-4
1.481500E-7	-6.817556E-4
1.482000E-7	-6.218024E-4
1.482500E-7	-5.721268E-4
1.483000E-7	-5.224512E-4
1.483500E-7	-4.864793E-4
1.484000E-7	-4.762016E-4
1.484500E-7	-4.265260E-4
1.485000E-7	-3.905541E-4
1.485500E-7	-3.580080E-4
1.486000E-7	-2.774994E-4
1.486500E-7	-1.832871E-4
1.487000E-7	-7.023244E-5
1.487500E-7	5.138702E-5
1.488000E-7	1.781453E-4
1.488500E-7	2.757835E-4
1.489000E-7	3.717087E-4
1.489500E-7	4.522173E-4
1.490000E-7	4.590691E-4
1.490500E-7	3.956900E-4
1.491000E-7	2.963389E-4
1.491500E-7	1.507381E-4
1.492000E-7	-3.426048E-5
1.492500E-7	-2.055555E-4
1.493000E-7	-3.100454E-4
1.493500E-7	-4.076836E-4
1.494000E-7	-4.642109E-4
1.494500E-7	-4.710627E-4
1.495000E-7	-4.196742E-4
1.495500E-7	-3.443044E-4
1.496000E-7	-2.363886E-4
1.496500E-7	-1.336116E-4
1.497000E-7	-4.453819E-5
1.497500E-7	3.939637E-5
1.498000E-7	1.010626E-4
1.498500E-7	1.524511E-4
1.499000E-7	1.695806E-4
1.499500E-7	1.387475E-4
1.500000E-7	9.078487E-5
1.500500E-7	4.282227E-5
1.501000E-7	-3.427384E-6
1.501500E-7	-6.680654E-5
1.502000E-7	-7.365834E-5
1.502500E-7	-7.708424E-5
1.503000E-7	-4.796409E-5
1.503500E-7	-3.427384E-6
1.504000E-7	2.911867E-5
1.504500E-7	6.680357E-5
1.505000E-7	8.222012E-5
1.505500E-7	9.078487E-5
1.506000E-7	7.708127E-5
1.506500E-7	1.198917E-5
1.507000E-7	-8.393604E-5
1.507500E-7	-1.918519E-4
1.508000E-7	-2.757864E-4
1.508500E-7	-3.665728E-4
1.509000E-7	-4.265260E-4
1.509500E-7	-4.710627E-4
1.510000E-7	-4.881922E-4
1.510500E-7	-4.744886E-4
1.511000E-7	-4.556462E-4
1.511500E-7	-4.676368E-4
1.512000E-7	-4.642109E-4
1.512500E-7	-4.436555E-4
1.513000E-7	-4.522203E-4
1.513500E-7	-4.419426E-4
1.514000E-7	-4.316649E-4
1.514500E-7	-3.871282E-4
1.515000E-7	-3.819893E-4
1.515500E-7	-3.854152E-4
1.516000E-7	-3.699987E-4
1.516500E-7	-3.871282E-4
1.517000E-7	-3.991188E-4
1.517500E-7	-4.385167E-4
1.518000E-7	-4.368037E-4
1.518500E-7	-4.453685E-4
1.519000E-7	-4.265260E-4
1.519500E-7	-3.939800E-4
1.520000E-7	-3.271749E-4
1.520500E-7	-2.295368E-4
1.521000E-7	-1.301857E-4
1.521500E-7	-1.541803E-5
1.522000E-7	8.222012E-5
1.522500E-7	1.541640E-4
1.523000E-7	2.312468E-4
1.523500E-7	2.672187E-4
1.524000E-7	2.518022E-4
1.524500E-7	2.158302E-4
1.525000E-7	1.730065E-4
1.525500E-7	1.044885E-4
1.526000E-7	2.911867E-5
1.526500E-7	-4.625114E-5
1.527000E-7	-8.564899E-5
1.527500E-7	-1.318986E-4
1.528000E-7	-1.336116E-4
1.528500E-7	-1.027785E-4
1.529000E-7	-3.597343E-5
1.529500E-7	7.022947E-5
1.530000E-7	1.593029E-4
1.530500E-7	2.415245E-4
1.531000E-7	3.477274E-4
1.531500E-7	4.025418E-4
1.532000E-7	4.093936E-4
1.532500E-7	4.230972E-4
1.533000E-7	3.871252E-4
1.533500E-7	3.477274E-4
1.534000E-7	2.518022E-4
1.534500E-7	1.438863E-4
1.535000E-7	4.624817E-5
1.535500E-7	-8.393604E-5
1.536000E-7	-1.404634E-4
1.536500E-7	-2.004166E-4
1.537000E-7	-2.089814E-4
1.537500E-7	-1.695835E-4
1.538000E-7	-1.010655E-4
1.538500E-7	-1.714434E-6
1.539000E-7	9.421077E-5
1.539500E-7	1.781453E-4
1.540000E-7	2.415245E-4
1.540500E-7	2.757835E-4
1.541000E-7	2.603669E-4
1.541500E-7	2.295338E-4
1.542000E-7	1.747194E-4
1.542500E-7	1.216180E-4
1.543000E-7	5.138702E-5
1.543500E-7	-3.427384E-6
1.544000E-7	-6.166769E-5
1.544500E-7	-9.763964E-5
1.545000E-7	-1.233339E-4
1.545500E-7	-1.164821E-4
1.546000E-7	-6.851949E-5
1.546500E-7	-1.027918E-5
1.547000E-7	5.481292E-5
1.547500E-7	9.078487E-5
1.548000E-7	1.815712E-4
1.548500E-7	2.278209E-4
1.549000E-7	2.398115E-4
1.549500E-7	2.603669E-4
1.550000E-7	2.363856E-4
1.550500E-7	2.175432E-4
1.551000E-7	1.781453E-4
1.551500E-7	1.541640E-4
1.552000E-7	1.010626E-4
1.552500E-7	8.564602E-5
1.553000E-7	8.222012E-5
1.553500E-7	8.393307E-5
1.554000E-7	1.096273E-4
1.554500E-7	1.370345E-4
1.555000E-7	2.106914E-4
1.555500E-7	2.860612E-4
1.556000E-7	3.340238E-4
1.556500E-7	3.614310E-4
1.557000E-7	3.939770E-4
1.557500E-7	4.230972E-4
1.558000E-7	4.470785E-4
1.558500E-7	4.487914E-4
1.559000E-7	4.607821E-4
1.559500E-7	4.761986E-4
1.560000E-7	4.659209E-4
1.560500E-7	4.573562E-4
1.561000E-7	4.487914E-4
1.561500E-7	4.453655E-4
1.562000E-7	4.316619E-4
1.562500E-7	4.145324E-4
1.563000E-7	3.734216E-4
1.563500E-7	3.768475E-4
1.564000E-7	3.819864E-4
1.564500E-7	3.871252E-4
1.565000E-7	3.888382E-4
1.565500E-7	3.802734E-4
1.566000E-7	4.042547E-4
1.566500E-7	3.974029E-4
1.567000E-7	4.025418E-4
1.567500E-7	3.956900E-4
1.568000E-7	4.111065E-4
1.568500E-7	3.751346E-4
1.569000E-7	3.597180E-4
1.569500E-7	3.254590E-4
1.570000E-7	3.323108E-4
1.570500E-7	2.997648E-4
1.571000E-7	3.186072E-4
1.571500E-7	3.049036E-4
1.572000E-7	3.460144E-4
1.572500E-7	3.734216E-4
1.573000E-7	4.093936E-4
1.573500E-7	4.179583E-4
1.574000E-7	4.111065E-4
1.574500E-7	3.717087E-4
1.575000E-7	3.203202E-4
1.575500E-7	2.141173E-4
1.576000E-7	9.592372E-5
1.576500E-7	-2.226983E-5
1.577000E-7	-1.370375E-4
1.577500E-7	-2.295368E-4
1.578000E-7	-3.374526E-4
1.578500E-7	-4.350908E-4
1.579000E-7	-5.001829E-4
1.579500E-7	-5.652750E-4
1.580000E-7	-6.149506E-4
1.580500E-7	-6.303671E-4
1.581000E-7	-5.978211E-4
1.581500E-7	-5.841175E-4
1.582000E-7	-5.755527E-4
1.582500E-7	-4.967570E-4
1.583000E-7	-4.556462E-4
1.583500E-7	-4.231001E-4
1.584000E-7	-3.939800E-4
1.584500E-7	-3.768505E-4
1.585000E-7	-3.648598E-4
1.585500E-7	-3.391656E-4
1.586000E-7	-2.912030E-4
1.586500E-7	-2.603699E-4
1.587000E-7	-2.500922E-4
1.587500E-7	-2.398145E-4
1.588000E-7	-1.798612E-4
1.588500E-7	-9.763964E-5
1.589000E-7	-3.768638E-5
1.589500E-7	5.481292E-5
1.590000E-7	1.558770E-4
1.590500E-7	2.432374E-4
1.591000E-7	3.562921E-4
1.591500E-7	4.573562E-4
1.592000E-7	5.430037E-4
1.592500E-7	6.355030E-4
1.593000E-7	6.903174E-4
1.593500E-7	6.731879E-4
1.594000E-7	6.509195E-4
1.594500E-7	5.978181E-4
1.595000E-7	5.430037E-4
1.595500E-7	4.522173E-4
1.596000E-7	4.025418E-4
1.596500E-7	3.408756E-4
1.597000E-7	2.894871E-4
1.597500E-7	2.535151E-4
1.598000E-7	1.987007E-4
1.598500E-7	1.695806E-4
1.599000E-7	1.353216E-4
1.599500E-7	1.370345E-4
1.600000E-7	1.027755E-4
1.600500E-7	4.624817E-5
1.601000E-7	1.712802E-5
1.601500E-7	2.569277E-5
1.602000E-7	-1.714434E-6
1.602500E-7	-3.254753E-5
1.603000E-7	-8.051014E-5
1.603500E-7	-1.181950E-4
1.604000E-7	-1.815742E-4
1.604500E-7	-2.329627E-4
1.605000E-7	-3.100454E-4
1.605500E-7	-4.162483E-4
1.606000E-7	-5.036088E-4
1.606500E-7	-5.721268E-4
1.607000E-7	-6.440707E-4
1.607500E-7	-6.783297E-4
1.608000E-7	-6.988851E-4
1.608500E-7	-6.868945E-4
1.609000E-7	-6.577743E-4
1.609500E-7	-6.098117E-4
1.610000E-7	-5.704139E-4
1.610500E-7	-5.190253E-4
1.611000E-7	-4.556462E-4
1.611500E-7	-3.717116E-4
1.612000E-7	-3.049066E-4
1.612500E-7	-2.278238E-4
1.613000E-7	-1.644447E-4
1.613500E-7	-1.575929E-4
1.614000E-7	-1.490281E-4
1.614500E-7	-1.456022E-4
1.615000E-7	-1.987037E-4
1.615500E-7	-2.740735E-4
1.616000E-7	-3.134713E-4
1.616500E-7	-3.785634E-4
1.617000E-7	-4.350908E-4
1.617500E-7	-4.916181E-4
1.618000E-7	-5.104606E-4
1.618500E-7	-5.447196E-4
1.619000E-7	-5.447196E-4
1.619500E-7	-5.549973E-4
1.620000E-7	-5.327290E-4
1.620500E-7	-4.967570E-4
1.621000E-7	-4.076836E-4
1.621500E-7	-3.014807E-4
1.622000E-7	-2.038425E-4
1.622500E-7	-1.336116E-4
1.623000E-7	-5.481589E-5
1.623500E-7	-5.140334E-6
1.624000E-7	1.541507E-5
1.624500E-7	3.768342E-5
1.625000E-7	4.453522E-5
1.625500E-7	5.995177E-5
1.626000E-7	5.652587E-5
1.626500E-7	4.624817E-5
1.627000E-7	7.365537E-5
1.627500E-7	1.027755E-4
1.628000E-7	1.336086E-4
1.628500E-7	2.106914E-4
1.629000E-7	2.535151E-4
1.629500E-7	2.757835E-4
1.630000E-7	3.134684E-4
1.630500E-7	3.699957E-4
1.631000E-7	4.042547E-4
1.631500E-7	4.830504E-4
1.632000E-7	5.155965E-4
1.632500E-7	5.378648E-4
1.633000E-7	5.755497E-4
1.633500E-7	5.635591E-4
1.634000E-7	5.618461E-4
1.634500E-7	5.344389E-4
1.635000E-7	5.173094E-4
1.635500E-7	4.984670E-4
1.636000E-7	4.779116E-4
1.636500E-7	4.659209E-4
1.637000E-7	4.282360E-4
1.637500E-7	3.648569E-4
1.638000E-7	3.408756E-4
1.638500E-7	3.203202E-4
1.639000E-7	2.946259E-4
1.639500E-7	2.877741E-4
1.640000E-7	2.877741E-4
1.640500E-7	2.843482E-4
1.641000E-7	3.271720E-4
1.641500E-7	3.305979E-4
1.642000E-7	3.614310E-4
1.642500E-7	3.734216E-4
1.643000E-7	3.991159E-4
1.643500E-7	3.768475E-4
1.644000E-7	3.049036E-4
1.644500E-7	2.295338E-4
1.645000E-7	1.935619E-4
1.645500E-7	1.301827E-4
1.646000E-7	3.939637E-5
1.646500E-7	-1.541803E-5
1.647000E-7	-3.768638E-5
1.647500E-7	-1.199213E-5
1.648000E-7	3.425752E-5
1.648500E-7	1.164791E-4
1.649000E-7	2.021266E-4
1.649500E-7	3.066166E-4
1.650000E-7	4.350878E-4
1.650500E-7	5.447166E-4
1.651000E-7	6.817526E-4
1.651500E-7	8.050850E-4
1.652000E-7	9.061491E-4
1.652500E-7	9.592505E-4
1.653000E-7	9.832318E-4
1.653500E-7	9.592505E-4
1.654000E-7	9.301304E-4
1.654500E-7	8.804548E-4
1.655000E-7	8.342052E-4
1.655500E-7	7.536965E-4
1.656000E-7	7.023080E-4
1.656500E-7	6.611972E-4
1.657000E-7	6.474936E-4
1.657500E-7	6.303641E-4
1.658000E-7	6.457807E-4
1.658500E-7	6.355030E-4
1.659000E-7	6.235123E-4
1.659500E-7	6.269382E-4
1.660000E-7	6.337900E-4
1.660500E-7	6.320771E-4
1.661000E-7	5.738368E-4
1.661500E-7	5.155965E-4
1.662000E-7	4.573562E-4
1.662500E-7	3.597180E-4
1.663000E-7	2.963389E-4
1.663500E-7	2.055525E-4
1.664000E-7	1.575899E-4
1.664500E-7	1.010626E-4
1.665000E-7	8.907192E-5
1.665500E-7	6.166472E-5
1.666000E-7	9.592372E-5
1.666500E-7	1.507381E-4
1.667000E-7	2.363856E-4
1.667500E-7	3.288849E-4
1.668000E-7	4.505044E-4
1.668500E-7	5.704109E-4
1.669000E-7	6.971692E-4
1.669500E-7	7.982332E-4
1.670000E-7	8.873066E-4
1.670500E-7	9.472599E-4
1.671000E-7	9.455469E-4
1.671500E-7	9.523987E-4
1.672000E-7	9.249915E-4
1.672500E-7	8.821678E-4
1.673000E-7	8.290663E-4
1.673500E-7	7.331411E-4
1.674000E-7	6.423548E-4
1.674500E-7	5.224483E-4
1.675000E-7	4.145324E-4
1.675500E-7	3.186072E-4
1.676000E-7	2.603669E-4
1.676500E-7	1.678676E-4
1.677000E-7	1.336086E-4
1.677500E-7	1.284698E-4
1.678000E-7	1.730065E-4
1.678500E-7	2.637928E-4
1.679000E-7	3.939770E-4
1.679500E-7	4.659209E-4
1.680000E-7	5.824015E-4
1.680500E-7	6.440677E-4
1.681000E-7	7.211505E-4
1.681500E-7	7.982332E-4
1.682000E-7	8.222145E-4
1.682500E-7	8.222145E-4
1.683000E-7	8.136498E-4
1.683500E-7	7.776778E-4
1.684000E-7	7.160116E-4
1.684500E-7	6.303641E-4
1.685000E-7	5.310130E-4
1.685500E-7	4.505044E-4
1.686000E-7	3.545792E-4
1.686500E-7	2.860612E-4
1.687000E-7	2.072655E-4
1.687500E-7	1.438863E-4
1.688000E-7	8.907192E-5
1.688500E-7	8.907192E-5
1.689000E-7	6.851652E-5
1.689500E-7	5.137366E-6
1.690000E-7	-5.138999E-5
1.690500E-7	-8.393604E-5
1.691000E-7	-8.564899E-5
1.691500E-7	-7.879719E-5
1.692000E-7	-7.023244E-5
1.692500E-7	-5.652884E-5
1.693000E-7	-8.566234E-6
1.693500E-7	3.939637E-5
1.694000E-7	1.010626E-4
1.694500E-7	1.798583E-4
1.695000E-7	2.432374E-4
1.695500E-7	2.997648E-4
1.696000E-7	3.288849E-4
1.696500E-7	3.425885E-4
1.697000E-7	3.254590E-4
1.697500E-7	3.151813E-4
1.698000E-7	2.963389E-4
1.698500E-7	2.329597E-4
1.699000E-7	2.106914E-4
1.699500E-7	1.678676E-4
1.700000E-7	1.233309E-4
1.700500E-7	6.851652E-5
1.701000E-7	6.850316E-6
1.701500E-7	-3.426048E-5
1.702000E-7	-5.652884E-5
1.702500E-7	-9.421374E-5
1.703000E-7	-1.387504E-4
1.703500E-7	-1.610188E-4
1.704000E-7	-1.952778E-4
1.704500E-7	-1.850001E-4
1.705000E-7	-1.524540E-4
1.705500E-7	-8.393604E-5
1.706000E-7	-1.713098E-5
1.706500E-7	9.934962E-5
1.707000E-7	1.901360E-4
1.707500E-7	2.826353E-4
1.708000E-7	4.076806E-4
1.708500E-7	4.779116E-4
1.709000E-7	5.395778E-4
1.709500E-7	5.721238E-4
1.710000E-7	5.841145E-4
1.710500E-7	5.361519E-4
1.711000E-7	5.241612E-4
1.711500E-7	4.539303E-4
1.712000E-7	3.682828E-4
1.712500E-7	3.031907E-4
1.713000E-7	2.449504E-4
1.713500E-7	1.695806E-4
1.714000E-7	1.164791E-4
1.714500E-7	1.199050E-4
1.715000E-7	1.747194E-4
1.715500E-7	1.884230E-4
1.716000E-7	2.586540E-4
1.716500E-7	3.443015E-4
1.717000E-7	4.145324E-4
1.717500E-7	4.419396E-4
1.718000E-7	4.916152E-4
1.718500E-7	5.121706E-4
1.719000E-7	5.190224E-4
1.719500E-7	5.138835E-4
1.720000E-7	4.899022E-4
1.720500E-7	4.265231E-4
1.721000E-7	3.802734E-4
1.721500E-7	3.614310E-4
1.722000E-7	3.477274E-4
1.722500E-7	3.066166E-4
1.723000E-7	2.774964E-4
1.723500E-7	2.586540E-4
1.724000E-7	2.106914E-4
1.724500E-7	1.507381E-4
1.725000E-7	1.010626E-4
1.725500E-7	5.481292E-5
1.726000E-7	-6.853284E-6
1.726500E-7	-7.537129E-5
1.727000E-7	-1.096303E-4
1.727500E-7	-1.421763E-4
1.728000E-7	-1.507411E-4
1.728500E-7	-1.558799E-4
1.729000E-7	-1.421763E-4
1.729500E-7	-1.301857E-4
1.730000E-7	-1.147691E-4
1.730500E-7	-1.387504E-4
1.731000E-7	-1.490281E-4
1.731500E-7	-1.610188E-4
1.732000E-7	-1.695835E-4
1.732500E-7	-1.884260E-4
1.733000E-7	-2.141202E-4
1.733500E-7	-2.312497E-4
1.734000E-7	-2.175461E-4
1.734500E-7	-1.884260E-4
1.735000E-7	-1.387504E-4
1.735500E-7	-7.194539E-5
1.736000E-7	8.563266E-6
1.736500E-7	1.044885E-4
1.737000E-7	1.969878E-4
1.737500E-7	3.117554E-4
1.738000E-7	4.299490E-4
1.738500E-7	5.738368E-4
1.739000E-7	6.577713E-4
1.739500E-7	7.194375E-4
1.740000E-7	7.742519E-4
1.740500E-7	8.033721E-4
1.741000E-7	8.016591E-4
1.741500E-7	8.187886E-4
1.742000E-7	7.793908E-4
1.742500E-7	7.314282E-4
1.743000E-7	6.680490E-4
1.743500E-7	6.012440E-4
1.744000E-7	5.258742E-4
1.744500E-7	4.727727E-4
1.745000E-7	4.316619E-4
1.745500E-7	4.128195E-4
1.746000E-7	4.436526E-4
1.746500E-7	4.864763E-4
1.747000E-7	5.567073E-4
1.747500E-7	6.646231E-4
1.748000E-7	7.965203E-4
1.748500E-7	8.890196E-4
1.749000E-7	9.798059E-4
1.749500E-7	1.065453E-3
1.750000E-7	1.106564E-3
1.750500E-7	1.106564E-3
1.751000E-7	1.051750E-3
1.751500E-7	9.746671E-4
1.752000E-7	8.907325E-4
1.752500E-7	8.016591E-4
1.753000E-7	6.868915E-4
1.753500E-7	5.841145E-4
1.754000E-7	5.241612E-4
1.754500E-7	5.053188E-4
1.755000E-7	4.967540E-4
1.755500E-7	5.549943E-4
1.756000E-7	6.337900E-4
1.756500E-7	7.057339E-4
1.757000E-7	7.811037E-4
1.757500E-7	8.359181E-4
1.758000E-7	8.684642E-4
1.758500E-7	8.736030E-4
1.759000E-7	8.547606E-4
1.759500E-7	8.119368E-4
1.760000E-7	7.297152E-4
1.760500E-7	6.457807E-4
1.761000E-7	5.961051E-4
1.761500E-7	5.686979E-4
1.762000E-7	5.549943E-4
1.762500E-7	5.789756E-4
1.763000E-7	6.098087E-4
1.763500E-7	6.252253E-4
1.764000E-7	6.526325E-4
1.764500E-7	6.988821E-4
1.765000E-7	7.280023E-4
1.765500E-7	7.451318E-4
1.766000E-7	7.536965E-4
1.766500E-7	7.948073E-4
1.767000E-7	7.896685E-4
1.767500E-7	8.410570E-4
1.768000E-7	8.924455E-4
1.768500E-7	9.643894E-4
1.769000E-7	1.036333E-3
1.769500E-7	1.116842E-3
1.770000E-7	1.180221E-3
1.770500E-7	1.235036E-3
1.771000E-7	1.269295E-3
1.771500E-7	1.264156E-3
1.772000E-7	1.241887E-3
1.772500E-7	1.188786E-3
1.773000E-7	1.106564E-3
1.773500E-7	9.986484E-4
1.774000E-7	8.924455E-4
1.774500E-7	8.307793E-4
1.775000E-7	7.485577E-4
1.775500E-7	7.245764E-4
1.776000E-7	7.434188E-4
1.776500E-7	7.793908E-4
1.777000E-7	8.427699E-4
1.777500E-7	9.078620E-4
1.778000E-7	9.866577E-4
1.778500E-7	1.062028E-3
1.779000E-7	1.075731E-3
1.779500E-7	1.043185E-3
1.780000E-7	1.026056E-3
1.780500E-7	9.729541E-4
1.781000E-7	9.147138E-4
1.781500E-7	8.581865E-4
1.782000E-7	8.376311E-4
1.782500E-7	8.444829E-4
1.783000E-7	8.736030E-4
1.783500E-7	8.992973E-4
1.784000E-7	9.438340E-4
1.784500E-7	9.729541E-4
1.785000E-7	1.005500E-3
1.785500E-7	1.024343E-3
1.786000E-7	1.012352E-3
1.786500E-7	9.798059E-4
1.787000E-7	9.301304E-4
1.787500E-7	8.324922E-4
1.788000E-7	7.468447E-4
1.788500E-7	6.423548E-4
1.789000E-7	5.327260E-4
1.789500E-7	4.556432E-4
1.790000E-7	4.196713E-4
1.790500E-7	4.008288E-4
1.791000E-7	3.974029E-4
1.791500E-7	3.699957E-4
1.792000E-7	3.819864E-4
1.792500E-7	3.460144E-4
1.793000E-7	3.374497E-4
1.793500E-7	3.066166E-4
1.794000E-7	3.323108E-4
1.794500E-7	3.357367E-4
1.795000E-7	3.357367E-4
1.795500E-7	3.271720E-4
1.796000E-7	3.031907E-4
1.796500E-7	2.826353E-4
1.797000E-7	2.740705E-4
1.797500E-7	2.774964E-4
1.798000E-7	3.168943E-4
1.798500E-7	3.939770E-4
1.799000E-7	5.310130E-4
1.799500E-7	6.440677E-4
1.800000E-7	7.828167E-4
1.800500E-7	9.010102E-4
1.801000E-7	1.031194E-3
1.801500E-7	1.115129E-3
1.802000E-7	1.154527E-3
1.802500E-7	1.187073E-3
1.803000E-7	1.181934E-3
1.803500E-7	1.157953E-3
1.804000E-7	1.120268E-3
1.804500E-7	1.063740E-3
1.805000E-7	9.438340E-4
1.805500E-7	8.581865E-4
1.806000E-7	7.776778E-4
1.806500E-7	7.194375E-4
1.807000E-7	6.920303E-4
1.807500E-7	6.988821E-4
1.808000E-7	7.280023E-4
1.808500E-7	7.913814E-4
1.809000E-7	8.547606E-4
1.809500E-7	9.181397E-4
1.810000E-7	9.575376E-4
1.810500E-7	9.695282E-4
1.811000E-7	9.352692E-4
1.811500E-7	8.667512E-4
1.812000E-7	7.999462E-4
1.812500E-7	7.040210E-4
1.813000E-7	6.098087E-4
1.813500E-7	5.378648E-4
1.814000E-7	4.813375E-4
1.814500E-7	4.505044E-4
1.815000E-7	4.847634E-4
1.815500E-7	5.070317E-4
1.816000E-7	5.567073E-4
1.816500E-7	6.337900E-4
1.817000E-7	7.536965E-4
1.817500E-7	8.479088E-4
1.818000E-7	9.112879E-4
1.818500E-7	9.592505E-4
1.819000E-7	9.849448E-4
1.819500E-7	9.986484E-4
1.820000E-7	9.729541E-4
1.820500E-7	9.438340E-4
1.821000E-7	9.215656E-4
1.821500E-7	8.701771E-4
1.822000E-7	7.879555E-4
1.822500E-7	7.331411E-4
1.823000E-7	6.406418E-4
1.823500E-7	5.824015E-4
1.824000E-7	5.138835E-4
1.824500E-7	4.368008E-4
1.825000E-7	3.734216E-4
1.825500E-7	3.374497E-4
1.826000E-7	3.014777E-4
1.826500E-7	2.483763E-4
1.827000E-7	2.124043E-4
1.827500E-7	2.038396E-4
1.828000E-7	2.038396E-4
1.828500E-7	2.141173E-4
1.829000E-7	2.346727E-4
1.829500E-7	2.774964E-4
1.830000E-7	2.963389E-4
1.830500E-7	3.562921E-4
1.831000E-7	3.939770E-4
1.831500E-7	4.573562E-4
1.832000E-7	5.207353E-4
1.832500E-7	6.012440E-4
1.833000E-7	6.526325E-4
1.833500E-7	6.868915E-4
1.834000E-7	6.800397E-4
1.834500E-7	6.646231E-4
1.835000E-7	6.303641E-4
1.835500E-7	5.669850E-4
1.836000E-7	4.916152E-4
1.836500E-7	3.785605E-4
1.837000E-7	3.066166E-4
1.837500E-7	2.466633E-4
1.838000E-7	2.398115E-4
1.838500E-7	2.929130E-4
1.839000E-7	3.836993E-4
1.839500E-7	4.847634E-4
1.840000E-7	6.132346E-4
1.840500E-7	7.879555E-4
1.841000E-7	9.489728E-4
1.841500E-7	1.120268E-3
1.842000E-7	1.284711E-3
1.842500E-7	1.411469E-3
1.843000E-7	1.488552E-3
1.843500E-7	1.509108E-3
1.844000E-7	1.479987E-3
1.844500E-7	1.396053E-3
1.845000E-7	1.274433E-3
1.845500E-7	1.099712E-3
1.846000E-7	9.506858E-4
1.846500E-7	7.742519E-4
1.847000E-7	6.115217E-4
1.847500E-7	4.522173E-4
1.848000E-7	3.083295E-4
1.848500E-7	2.415245E-4
1.849000E-7	2.175432E-4
1.849500E-7	2.483763E-4
1.850000E-7	3.357367E-4
1.850500E-7	4.385137E-4
1.851000E-7	5.464296E-4
1.851500E-7	6.868915E-4
1.852000E-7	8.102239E-4
1.852500E-7	9.061491E-4
1.853000E-7	9.780930E-4
1.853500E-7	1.039759E-3
1.854000E-7	1.053463E-3
1.854500E-7	1.019204E-3
1.855000E-7	9.935095E-4
1.855500E-7	9.575376E-4
1.856000E-7	9.267045E-4
1.856500E-7	9.198527E-4
1.857000E-7	9.078620E-4
1.857500E-7	8.890196E-4
1.858000E-7	9.147138E-4
1.858500E-7	9.643894E-4
1.859000E-7	1.003787E-3
1.859500E-7	1.015778E-3
1.860000E-7	1.022630E-3
1.860500E-7	1.008926E-3
1.861000E-7	1.003787E-3
1.861500E-7	9.763800E-4
1.862000E-7	9.232786E-4
1.862500E-7	8.821678E-4
1.863000E-7	8.273534E-4
1.863500E-7	7.519836E-4
1.864000E-7	6.937433E-4
1.864500E-7	6.629102E-4
1.865000E-7	6.200864E-4
1.865500E-7	6.063828E-4
1.866000E-7	6.183735E-4
1.866500E-7	6.611972E-4
1.867000E-7	6.937433E-4
1.867500E-7	7.742519E-4
1.868000E-7	8.616124E-4
1.868500E-7	9.369822E-4
1.869000E-7	1.010639E-3
1.869500E-7	1.099712E-3
1.870000E-7	1.173369E-3
1.870500E-7	1.253878E-3
1.871000E-7	1.312118E-3
1.871500E-7	1.366933E-3
1.872000E-7	1.413182E-3
1.872500E-7	1.401192E-3
1.873000E-7	1.392627E-3
1.873500E-7	1.356655E-3
1.874000E-7	1.269295E-3
1.874500E-7	1.166518E-3
1.875000E-7	1.070592E-3
1.875500E-7	9.386951E-4
1.876000E-7	8.342052E-4
1.876500E-7	7.417059E-4
1.877000E-7	6.355030E-4
1.877500E-7	5.412907E-4
1.878000E-7	4.710598E-4
1.878500E-7	4.230972E-4
1.879000E-7	3.939770E-4
1.879500E-7	4.059677E-4
1.880000E-7	4.385137E-4
1.880500E-7	5.053188E-4
1.881000E-7	5.652720E-4
1.881500E-7	6.457807E-4
1.882000E-7	7.571224E-4
1.882500E-7	8.992973E-4
1.883000E-7	9.969354E-4
1.883500E-7	1.075731E-3
1.884000E-7	1.133971E-3
1.884500E-7	1.199064E-3
1.885000E-7	1.241887E-3
1.885500E-7	1.231610E-3
1.886000E-7	1.183647E-3
1.886500E-7	1.137397E-3
1.887000E-7	1.125407E-3
1.887500E-7	1.147675E-3
1.888000E-7	1.187073E-3
1.888500E-7	1.250452E-3
1.889000E-7	1.353229E-3
1.889500E-7	1.423460E-3
1.890000E-7	1.512533E-3
1.890500E-7	1.577626E-3
1.891000E-7	1.656421E-3
1.891500E-7	1.687254E-3
1.892000E-7	1.668412E-3
1.892500E-7	1.659847E-3
1.893000E-7	1.570774E-3
1.893500E-7	1.495404E-3
1.894000E-7	1.356655E-3
1.894500E-7	1.209341E-3
1.895000E-7	1.108277E-3
1.895500E-7	1.039759E-3
1.896000E-7	1.032907E-3
1.896500E-7	1.068879E-3
1.897000E-7	1.173369E-3
1.897500E-7	1.301841E-3
1.898000E-7	1.435451E-3
1.898500E-7	1.570774E-3
1.899000E-7	1.706097E-3
1.899500E-7	1.790031E-3
1.900000E-7	1.870540E-3
1.900500E-7	1.915077E-3
1.901000E-7	1.903086E-3
1.901500E-7	1.841420E-3
1.902000E-7	1.724939E-3
1.902500E-7	1.577626E-3
1.903000E-7	1.461145E-3
1.903500E-7	1.363507E-3
1.904000E-7	1.271007E-3
1.904500E-7	1.168230E-3
1.905000E-7	1.099712E-3
1.905500E-7	1.053463E-3
1.906000E-7	1.012352E-3
1.906500E-7	9.849448E-4
1.907000E-7	9.661023E-4
1.907500E-7	9.729541E-4
1.908000E-7	9.729541E-4
1.908500E-7	9.832318E-4
1.909000E-7	9.763800E-4
1.909500E-7	9.609635E-4
1.910000E-7	9.386951E-4
1.910500E-7	9.249915E-4
1.911000E-7	9.249915E-4
1.911500E-7	9.335563E-4
1.912000E-7	9.386951E-4
1.912500E-7	9.078620E-4
1.913000E-7	8.701771E-4
1.913500E-7	8.324922E-4
1.914000E-7	7.930944E-4
1.914500E-7	7.605483E-4
1.915000E-7	7.417059E-4
1.915500E-7	7.005951E-4
1.916000E-7	6.971692E-4
1.916500E-7	7.125857E-4
1.917000E-7	7.228634E-4
1.917500E-7	7.502706E-4
1.918000E-7	7.862426E-4
1.918500E-7	8.290663E-4
1.919000E-7	8.907325E-4
1.919500E-7	9.592505E-4
1.920000E-7	1.003787E-3
1.920500E-7	1.075731E-3
1.921000E-7	1.104851E-3
1.921500E-7	1.125407E-3
1.922000E-7	1.092861E-3
1.922500E-7	1.060315E-3
1.923000E-7	1.038046E-3
1.923500E-7	1.043185E-3
1.924000E-7	1.068879E-3
1.924500E-7	1.094574E-3
1.925000E-7	1.127120E-3
1.925500E-7	1.140823E-3
1.926000E-7	1.175082E-3
1.926500E-7	1.253878E-3
1.927000E-7	1.289850E-3
1.927500E-7	1.294989E-3
1.928000E-7	1.264156E-3
1.928500E-7	1.216193E-3
1.929000E-7	1.103138E-3
1.929500E-7	9.815189E-4
1.930000E-7	8.410570E-4
1.930500E-7	7.074469E-4
1.931000E-7	5.909663E-4
1.931500E-7	4.727727E-4
1.932000E-7	3.768475E-4
1.932500E-7	3.682828E-4
1.933000E-7	4.145324E-4
1.933500E-7	4.916152E-4
1.934000E-7	6.337900E-4
1.934500E-7	8.136498E-4
1.935000E-7	1.014065E-3
1.935500E-7	1.193925E-3
1.936000E-7	1.361794E-3
1.936500E-7	1.469710E-3
1.937000E-7	1.488552E-3
1.937500E-7	1.445728E-3
1.938000E-7	1.354942E-3
1.938500E-7	1.233323E-3
1.939000E-7	1.091148E-3
1.939500E-7	9.318433E-4
1.940000E-7	7.845296E-4
1.940500E-7	6.389289E-4
1.941000E-7	5.241612E-4
1.941500E-7	5.001799E-4
1.942000E-7	5.207353E-4
1.942500E-7	5.618461E-4
1.943000E-7	6.594843E-4
1.943500E-7	7.297152E-4
1.944000E-7	8.393440E-4
1.944500E-7	9.438340E-4
1.945000E-7	1.034620E-3
1.945500E-7	1.087722E-3
1.946000E-7	1.140823E-3
1.946500E-7	1.140823E-3
1.947000E-7	1.133971E-3
1.947500E-7	1.118555E-3
1.948000E-7	1.089435E-3
1.948500E-7	1.086009E-3
1.949000E-7	1.082583E-3
1.949500E-7	1.104851E-3
1.950000E-7	1.139110E-3
1.950500E-7	1.168230E-3
1.951000E-7	1.216193E-3
1.951500E-7	1.260730E-3
1.952000E-7	1.310405E-3
1.952500E-7	1.325822E-3
1.953000E-7	1.318970E-3
1.953500E-7	1.240174E-3
1.954000E-7	1.137397E-3
1.954500E-7	1.008926E-3
1.955000E-7	8.787419E-4
1.955500E-7	7.280023E-4
1.956000E-7	5.721238E-4
1.956500E-7	4.487914E-4
1.957000E-7	3.819864E-4
1.957500E-7	3.648569E-4
1.958000E-7	3.391626E-4
1.958500E-7	3.631439E-4
1.959000E-7	4.059677E-4
1.959500E-7	5.070317E-4
1.960000E-7	6.029569E-4
1.960500E-7	7.040210E-4
1.961000E-7	7.879555E-4
1.961500E-7	8.205016E-4
1.962000E-7	8.290663E-4
1.962500E-7	7.674001E-4
1.963000E-7	7.040210E-4
1.963500E-7	6.149476E-4
1.964000E-7	4.984670E-4
1.964500E-7	3.905511E-4
1.965000E-7	2.980518E-4
1.965500E-7	2.329597E-4
1.966000E-7	2.603669E-4
1.966500E-7	2.963389E-4
1.967000E-7	3.836993E-4
1.967500E-7	4.813375E-4
1.968000E-7	6.063828E-4
1.968500E-7	7.314282E-4
1.969000E-7	8.444829E-4
1.969500E-7	9.386951E-4
1.970000E-7	9.900836E-4
1.970500E-7	9.969354E-4
1.971000E-7	9.952225E-4
1.971500E-7	9.147138E-4
1.972000E-7	7.948073E-4
1.972500E-7	6.680490E-4
1.973000E-7	5.378648E-4
1.973500E-7	3.974029E-4
1.974000E-7	2.723576E-4
1.974500E-7	1.661547E-4
1.975000E-7	1.096273E-4
1.975500E-7	7.536832E-5
1.976000E-7	5.995177E-5
1.976500E-7	6.851652E-5
1.977000E-7	1.524511E-4
1.977500E-7	2.483763E-4
1.978000E-7	3.854123E-4
1.978500E-7	5.070317E-4
1.979000E-7	6.012440E-4
1.979500E-7	6.851785E-4
1.980000E-7	7.674001E-4
1.980500E-7	7.965203E-4
1.981000E-7	8.324922E-4
1.981500E-7	8.376311E-4
1.982000E-7	8.393440E-4
1.982500E-7	8.324922E-4
1.983000E-7	8.205016E-4
1.983500E-7	8.222145E-4
1.984000E-7	7.862426E-4
1.984500E-7	7.811037E-4
1.985000E-7	7.879555E-4
1.985500E-7	7.982332E-4
1.986000E-7	7.845296E-4
1.986500E-7	7.622613E-4
1.987000E-7	7.605483E-4
1.987500E-7	7.194375E-4
1.988000E-7	6.731879E-4
1.988500E-7	6.492066E-4
1.989000E-7	6.166605E-4
1.989500E-7	6.252253E-4
1.990000E-7	7.091598E-4
1.990500E-7	7.828167E-4
1.991000E-7	8.770289E-4
1.991500E-7	9.558246E-4
1.992000E-7	1.046611E-3
1.992500E-7	1.082583E-3
1.993000E-7	1.116842E-3
1.993500E-7	1.132259E-3
1.994000E-7	1.120268E-3
1.994500E-7	1.106564E-3
1.995000E-7	1.044898E-3
1.995500E-7	9.883707E-4
1.996000E-7	9.164268E-4
1.996500E-7	8.324922E-4
1.997000E-7	7.588354E-4
1.997500E-7	6.783267E-4
1.998000E-7	6.389289E-4
1.998500E-7	6.235123E-4
1.999000E-7	6.372159E-4
1.999500E-7	6.594843E-4
2.000000E-7	6.988821E-4
2.000500E-7	7.365670E-4
