Study Name	V_single_crystal
Sample Name	2019-08-15
Run Name	1stIrr45degspot03
Operator	Angus Wylie
Date	8/15/2019
Time	14:54
Sign	FIX
Grating Spacing	06.40um
Channel	3
Number Traces	10000
Files in Batch	1
Batch Number	1
dt	50.000001E-12
time stamp (ms)	14:56:34
	
Time	Amplitude
0.000000E+0	-4.333764E-4
5.000000E-11	-3.802749E-4
1.000000E-10	-3.066181E-4
1.500000E-10	-2.209706E-4
2.000000E-10	-1.593044E-4
2.500000E-10	-1.164806E-4
3.000000E-10	-6.337915E-5
3.500000E-10	-2.912015E-5
4.000000E-10	-3.768490E-5
4.500000E-10	-4.796260E-5
5.000000E-10	-4.796260E-5
5.500000E-10	-5.481440E-5
6.000000E-10	-5.138850E-5
6.500000E-10	-2.398130E-5
7.000000E-10	-6.851800E-6
7.500000E-10	-8.564750E-6
8.000000E-10	-6.851800E-6
8.500000E-10	-1.027770E-5
9.000000E-10	-3.083310E-5
9.500000E-10	-5.310145E-5
1.000000E-9	-7.536980E-5
1.050000E-9	-1.062029E-4
1.100000E-9	-1.387490E-4
1.150000E-9	-1.712950E-4
1.200000E-9	-2.226835E-4
1.250000E-9	-2.809238E-4
1.300000E-9	-3.168958E-4
1.350000E-9	-3.443030E-4
1.400000E-9	-3.802749E-4
1.450000E-9	-3.939785E-4
1.500000E-9	-3.717102E-4
1.550000E-9	-3.477289E-4
1.600000E-9	-3.203217E-4
1.650000E-9	-2.792109E-4
1.700000E-9	-2.346742E-4
1.750000E-9	-2.004152E-4
1.800000E-9	-1.541655E-4
1.850000E-9	-9.763815E-5
1.900000E-9	-3.597195E-5
1.950000E-9	1.027770E-5
2.000000E-9	2.226835E-5
2.050000E-9	3.597195E-5
2.100000E-9	5.995325E-5
2.150000E-9	7.536980E-5
2.200000E-9	8.222160E-5
2.250000E-9	1.079159E-4
2.300000E-9	1.370360E-4
2.350000E-9	1.490267E-4
2.400000E-9	1.610173E-4
2.450000E-9	1.969893E-4
2.500000E-9	2.329612E-4
2.550000E-9	2.518037E-4
2.600000E-9	2.706461E-4
2.650000E-9	3.083310E-4
2.700000E-9	3.460159E-4
2.750000E-9	3.699972E-4
2.800000E-9	3.837008E-4
2.850000E-9	3.785620E-4
2.900000E-9	3.408771E-4
2.950000E-9	2.912015E-4
3.000000E-9	2.295353E-4
3.050000E-9	1.575914E-4
3.100000E-9	7.365685E-5
3.150000E-9	-1.712950E-5
3.200000E-9	-1.267583E-4
3.250000E-9	-2.432389E-4
3.300000E-9	-3.443030E-4
3.350000E-9	-4.213857E-4
3.400000E-9	-4.864778E-4
3.450000E-9	-5.293016E-4
3.500000E-9	-5.378663E-4
3.550000E-9	-5.207368E-4
3.600000E-9	-5.036073E-4
3.650000E-9	-4.847649E-4
3.700000E-9	-4.522188E-4
3.750000E-9	-4.128210E-4
3.800000E-9	-3.888397E-4
3.850000E-9	-3.751361E-4
3.900000E-9	-3.580066E-4
3.950000E-9	-3.477289E-4
4.000000E-9	-3.648584E-4
4.050000E-9	-3.819879E-4
4.100000E-9	-3.974044E-4
4.150000E-9	-4.368023E-4
4.200000E-9	-4.693483E-4
4.250000E-9	-4.590706E-4
4.300000E-9	-4.402282E-4
4.350000E-9	-4.265246E-4
4.400000E-9	-3.819879E-4
4.450000E-9	-3.288864E-4
4.500000E-9	-3.031922E-4
4.550000E-9	-2.826368E-4
4.600000E-9	-2.535166E-4
4.650000E-9	-2.243965E-4
4.700000E-9	-2.072670E-4
4.750000E-9	-2.072670E-4
4.800000E-9	-2.243965E-4
4.850000E-9	-2.466648E-4
4.900000E-9	-2.637943E-4
4.950000E-9	-2.637943E-4
5.000000E-9	-2.466648E-4
5.050000E-9	-2.209706E-4
5.100000E-9	-1.849986E-4
5.150000E-9	-1.267583E-4
5.200000E-9	-5.310145E-5
5.250000E-9	2.569425E-5
5.300000E-9	8.050865E-5
5.350000E-9	1.113418E-4
5.400000E-9	1.301842E-4
5.450000E-9	1.456008E-4
5.500000E-9	1.490267E-4
5.550000E-9	1.524526E-4
5.600000E-9	1.318972E-4
5.650000E-9	8.393455E-5
5.700000E-9	3.768490E-5
5.750000E-9	-1.712950E-6
5.800000E-9	-4.967555E-5
5.850000E-9	-9.421225E-5
5.900000E-9	-1.181936E-4
5.950000E-9	-1.318972E-4
6.000000E-9	-1.404619E-4
6.050000E-9	-1.267583E-4
6.100000E-9	-9.763815E-5
6.150000E-9	-7.365685E-5
6.200000E-9	-4.624965E-5
6.250000E-9	-5.138850E-6
6.300000E-9	5.481440E-5
6.350000E-9	1.336101E-4
6.400000E-9	2.175447E-4
6.450000E-9	2.929145E-4
6.500000E-9	3.648584E-4
6.550000E-9	4.230987E-4
6.600000E-9	4.607836E-4
6.650000E-9	5.138850E-4
6.700000E-9	5.909678E-4
6.750000E-9	6.594858E-4
6.800000E-9	7.280038E-4
6.850000E-9	8.307808E-4
6.900000E-9	9.352707E-4
6.950000E-9	1.056890E-3
7.000000E-9	1.259018E-3
7.050000E-9	1.574201E-3
7.100000E-9	2.029846E-3
7.150000E-9	2.711600E-3
7.200000E-9	3.701685E-3
7.250000E-9	5.042925E-3
7.300000E-9	6.757588E-3
7.350000E-9	8.864517E-3
7.400000E-9	1.137570E-2
7.450000E-9	1.427059E-2
7.500000E-9	1.747209E-2
7.550000E-9	2.086202E-2
7.600000E-9	2.431533E-2
7.650000E-9	2.769155E-2
7.700000E-9	3.085023E-2
7.750000E-9	3.365947E-2
7.800000E-9	3.602848E-2
7.850000E-9	3.790416E-2
7.900000E-9	3.925910E-2
7.950000E-9	4.011729E-2
8.000000E-9	4.056437E-2
8.050000E-9	4.069284E-2
8.100000E-9	4.059349E-2
8.150000E-9	4.038108E-2
8.200000E-9	4.019095E-2
8.250000E-9	4.012414E-2
8.300000E-9	4.023720E-2
8.350000E-9	4.055923E-2
8.400000E-9	4.108511E-2
8.450000E-9	4.176344E-2
8.500000E-9	4.253255E-2
8.550000E-9	4.333764E-2
8.600000E-9	4.411874E-2
8.650000E-9	4.478508E-2
8.700000E-9	4.526984E-2
8.750000E-9	4.553878E-2
8.800000E-9	4.554563E-2
8.850000E-9	4.525614E-2
8.900000E-9	4.469087E-2
8.950000E-9	4.386865E-2
9.000000E-9	4.280320E-2
9.050000E-9	4.152362E-2
9.100000E-9	4.007789E-2
9.150000E-9	3.853624E-2
9.200000E-9	3.695005E-2
9.250000E-9	3.536728E-2
9.300000E-9	3.383762E-2
9.350000E-9	3.238846E-2
9.400000E-9	3.102495E-2
9.450000E-9	2.977621E-2
9.500000E-9	2.866279E-2
9.550000E-9	2.770354E-2
9.600000E-9	2.690188E-2
9.650000E-9	2.624411E-2
9.700000E-9	2.571823E-2
9.750000E-9	2.530370E-2
9.800000E-9	2.496625E-2
9.850000E-9	2.469046E-2
9.900000E-9	2.451232E-2
9.950000E-9	2.441468E-2
1.000000E-8	2.435815E-2
1.005000E-8	2.435301E-2
1.010000E-8	2.439926E-2
1.015000E-8	2.447292E-2
1.020000E-8	2.458255E-2
1.025000E-8	2.473671E-2
1.030000E-8	2.491657E-2
1.035000E-8	2.513069E-2
1.040000E-8	2.540819E-2
1.045000E-8	2.576791E-2
1.050000E-8	2.619615E-2
1.055000E-8	2.667748E-2
1.060000E-8	2.722392E-2
1.065000E-8	2.784229E-2
1.070000E-8	2.851034E-2
1.075000E-8	2.922464E-2
1.080000E-8	2.998176E-2
1.085000E-8	3.074917E-2
1.090000E-8	3.150629E-2
1.095000E-8	3.223601E-2
1.100000E-8	3.290920E-2
1.105000E-8	3.351729E-2
1.110000E-8	3.405002E-2
1.115000E-8	3.448168E-2
1.120000E-8	3.480029E-2
1.125000E-8	3.499900E-2
1.130000E-8	3.506066E-2
1.135000E-8	3.497159E-2
1.140000E-8	3.471293E-2
1.145000E-8	3.430182E-2
1.150000E-8	3.377938E-2
1.155000E-8	3.314901E-2
1.160000E-8	3.242614E-2
1.165000E-8	3.165360E-2
1.170000E-8	3.085708E-2
1.175000E-8	3.004001E-2
1.180000E-8	2.923834E-2
1.185000E-8	2.846067E-2
1.190000E-8	2.770697E-2
1.195000E-8	2.699267E-2
1.200000E-8	2.632633E-2
1.205000E-8	2.569596E-2
1.210000E-8	2.507930E-2
1.215000E-8	2.448833E-2
1.220000E-8	2.392306E-2
1.225000E-8	2.335607E-2
1.230000E-8	2.277710E-2
1.235000E-8	2.223067E-2
1.240000E-8	2.173220E-2
1.245000E-8	2.126285E-2
1.250000E-8	2.086544E-2
1.255000E-8	2.059309E-2
1.260000E-8	2.043207E-2
1.265000E-8	2.038411E-2
1.270000E-8	2.048517E-2
1.275000E-8	2.072498E-2
1.280000E-8	2.105901E-2
1.285000E-8	2.148553E-2
1.290000E-8	2.201312E-2
1.295000E-8	2.260751E-2
1.300000E-8	2.322932E-2
1.305000E-8	2.386139E-2
1.310000E-8	2.447977E-2
1.315000E-8	2.506731E-2
1.320000E-8	2.564800E-2
1.325000E-8	2.622698E-2
1.330000E-8	2.677855E-2
1.335000E-8	2.730785E-2
1.340000E-8	2.784400E-2
1.345000E-8	2.836645E-2
1.350000E-8	2.883580E-2
1.355000E-8	2.926918E-2
1.360000E-8	2.967343E-2
1.365000E-8	3.003487E-2
1.370000E-8	3.033977E-2
1.375000E-8	3.058301E-2
1.380000E-8	3.075944E-2
1.385000E-8	3.085880E-2
1.390000E-8	3.087421E-2
1.395000E-8	3.081768E-2
1.400000E-8	3.068236E-2
1.405000E-8	3.047338E-2
1.410000E-8	3.020445E-2
1.415000E-8	2.986528E-2
1.420000E-8	2.942506E-2
1.425000E-8	2.888719E-2
1.430000E-8	2.827909E-2
1.435000E-8	2.760076E-2
1.440000E-8	2.686077E-2
1.445000E-8	2.608994E-2
1.450000E-8	2.528486E-2
1.455000E-8	2.445407E-2
1.460000E-8	2.362672E-2
1.465000E-8	2.280622E-2
1.470000E-8	2.198743E-2
1.475000E-8	2.119776E-2
1.480000E-8	2.047318E-2
1.485000E-8	1.982226E-2
1.490000E-8	1.926384E-2
1.495000E-8	1.881676E-2
1.500000E-8	1.847417E-2
1.505000E-8	1.822750E-2
1.510000E-8	1.807162E-2
1.515000E-8	1.801167E-2
1.520000E-8	1.805963E-2
1.525000E-8	1.820695E-2
1.530000E-8	1.844505E-2
1.535000E-8	1.877736E-2
1.540000E-8	1.921416E-2
1.545000E-8	1.973661E-2
1.550000E-8	2.033443E-2
1.555000E-8	2.100077E-2
1.560000E-8	2.170136E-2
1.565000E-8	2.241738E-2
1.570000E-8	2.316080E-2
1.575000E-8	2.391107E-2
1.580000E-8	2.464764E-2
1.585000E-8	2.536708E-2
1.590000E-8	2.604712E-2
1.595000E-8	2.665693E-2
1.600000E-8	2.721535E-2
1.605000E-8	2.774123E-2
1.610000E-8	2.820201E-2
1.615000E-8	2.856858E-2
1.620000E-8	2.884437E-2
1.625000E-8	2.905163E-2
1.630000E-8	2.918353E-2
1.635000E-8	2.923321E-2
1.640000E-8	2.921779E-2
1.645000E-8	2.914242E-2
1.650000E-8	2.898311E-2
1.655000E-8	2.873988E-2
1.660000E-8	2.844354E-2
1.665000E-8	2.808553E-2
1.670000E-8	2.766243E-2
1.675000E-8	2.719651E-2
1.680000E-8	2.666378E-2
1.685000E-8	2.606425E-2
1.690000E-8	2.543388E-2
1.695000E-8	2.477440E-2
1.700000E-8	2.404982E-2
1.705000E-8	2.329955E-2
1.710000E-8	2.255099E-2
1.715000E-8	2.178701E-2
1.720000E-8	2.101618E-2
1.725000E-8	2.028989E-2
1.730000E-8	1.960985E-2
1.735000E-8	1.896407E-2
1.740000E-8	1.839366E-2
1.745000E-8	1.791232E-2
1.750000E-8	1.749607E-2
1.755000E-8	1.713464E-2
1.760000E-8	1.684515E-2
1.765000E-8	1.664302E-2
1.770000E-8	1.652997E-2
1.775000E-8	1.651455E-2
1.780000E-8	1.658650E-2
1.785000E-8	1.675779E-2
1.790000E-8	1.704557E-2
1.795000E-8	1.742584E-2
1.800000E-8	1.787635E-2
1.805000E-8	1.841421E-2
1.810000E-8	1.904115E-2
1.815000E-8	1.974518E-2
1.820000E-8	2.051258E-2
1.825000E-8	2.130910E-2
1.830000E-8	2.210219E-2
1.835000E-8	2.289015E-2
1.840000E-8	2.363528E-2
1.845000E-8	2.429648E-2
1.850000E-8	2.490115E-2
1.855000E-8	2.546985E-2
1.860000E-8	2.595291E-2
1.865000E-8	2.636059E-2
1.870000E-8	2.672545E-2
1.875000E-8	2.701322E-2
1.880000E-8	2.721535E-2
1.885000E-8	2.736266E-2
1.890000E-8	2.745345E-2
1.895000E-8	2.746887E-2
1.900000E-8	2.743803E-2
1.905000E-8	2.735581E-2
1.910000E-8	2.718280E-2
1.915000E-8	2.690017E-2
1.920000E-8	2.651989E-2
1.925000E-8	2.605568E-2
1.930000E-8	2.550583E-2
1.935000E-8	2.486176E-2
1.940000E-8	2.414574E-2
1.945000E-8	2.339718E-2
1.950000E-8	2.262464E-2
1.955000E-8	2.182127E-2
1.960000E-8	2.102132E-2
1.965000E-8	2.025563E-2
1.970000E-8	1.952249E-2
1.975000E-8	1.880134E-2
1.980000E-8	1.811616E-2
1.985000E-8	1.751320E-2
1.990000E-8	1.699075E-2
1.995000E-8	1.652997E-2
2.000000E-8	1.613942E-2
2.005000E-8	1.583108E-2
2.010000E-8	1.560326E-2
2.015000E-8	1.548164E-2
2.020000E-8	1.547650E-2
2.025000E-8	1.559984E-2
2.030000E-8	1.585164E-2
2.035000E-8	1.621992E-2
2.040000E-8	1.668756E-2
2.045000E-8	1.722543E-2
2.050000E-8	1.780440E-2
2.055000E-8	1.841250E-2
2.060000E-8	1.905486E-2
2.065000E-8	1.971092E-2
2.070000E-8	2.035327E-2
2.075000E-8	2.096651E-2
2.080000E-8	2.154206E-2
2.085000E-8	2.206108E-2
2.090000E-8	2.254756E-2
2.095000E-8	2.301862E-2
2.100000E-8	2.344343E-2
2.105000E-8	2.383227E-2
2.110000E-8	2.422968E-2
2.115000E-8	2.461509E-2
2.120000E-8	2.493199E-2
2.125000E-8	2.519407E-2
2.130000E-8	2.542360E-2
2.135000E-8	2.558805E-2
2.140000E-8	2.567712E-2
2.145000E-8	2.570624E-2
2.150000E-8	2.566342E-2
2.155000E-8	2.554694E-2
2.160000E-8	2.535851E-2
2.165000E-8	2.507074E-2
2.170000E-8	2.468190E-2
2.175000E-8	2.422111E-2
2.180000E-8	2.369866E-2
2.185000E-8	2.311626E-2
2.190000E-8	2.246705E-2
2.195000E-8	2.175447E-2
2.200000E-8	2.099392E-2
2.205000E-8	2.022823E-2
2.210000E-8	1.945740E-2
2.215000E-8	1.867287E-2
2.220000E-8	1.791746E-2
2.225000E-8	1.721172E-2
2.230000E-8	1.654710E-2
2.235000E-8	1.593215E-2
2.240000E-8	1.537373E-2
2.245000E-8	1.486327E-2
2.250000E-8	1.441105E-2
2.255000E-8	1.403591E-2
2.260000E-8	1.372416E-2
2.265000E-8	1.347235E-2
2.270000E-8	1.331305E-2
2.275000E-8	1.325652E-2
2.280000E-8	1.329249E-2
2.285000E-8	1.343295E-2
2.290000E-8	1.368133E-2
2.295000E-8	1.402906E-2
2.300000E-8	1.447443E-2
2.305000E-8	1.503628E-2
2.310000E-8	1.569576E-2
2.315000E-8	1.641863E-2
2.320000E-8	1.716719E-2
2.325000E-8	1.792602E-2
2.330000E-8	1.869171E-2
2.335000E-8	1.943342E-2
2.340000E-8	2.011175E-2
2.345000E-8	2.073183E-2
2.350000E-8	2.131938E-2
2.355000E-8	2.186067E-2
2.360000E-8	2.233687E-2
2.365000E-8	2.276168E-2
2.370000E-8	2.313682E-2
2.375000E-8	2.344686E-2
2.380000E-8	2.370038E-2
2.385000E-8	2.391621E-2
2.390000E-8	2.408750E-2
2.395000E-8	2.420398E-2
2.400000E-8	2.424510E-2
2.405000E-8	2.419371E-2
2.410000E-8	2.405153E-2
2.415000E-8	2.381686E-2
2.420000E-8	2.347769E-2
2.425000E-8	2.304432E-2
2.430000E-8	2.254414E-2
2.435000E-8	2.196858E-2
2.440000E-8	2.133479E-2
2.445000E-8	2.067188E-2
2.450000E-8	1.998328E-2
2.455000E-8	1.927754E-2
2.460000E-8	1.858893E-2
2.465000E-8	1.794486E-2
2.470000E-8	1.734019E-2
2.475000E-8	1.677835E-2
2.480000E-8	1.626617E-2
2.485000E-8	1.578997E-2
2.490000E-8	1.534461E-2
2.495000E-8	1.491466E-2
2.500000E-8	1.450355E-2
2.505000E-8	1.412327E-2
2.510000E-8	1.377726E-2
2.515000E-8	1.347235E-2
2.520000E-8	1.323939E-2
2.525000E-8	1.309893E-2
2.530000E-8	1.305097E-2
2.535000E-8	1.309208E-2
2.540000E-8	1.323768E-2
2.545000E-8	1.349805E-2
2.550000E-8	1.387661E-2
2.555000E-8	1.435623E-2
2.560000E-8	1.493692E-2
2.565000E-8	1.558956E-2
2.570000E-8	1.627303E-2
2.575000E-8	1.695649E-2
2.580000E-8	1.761940E-2
2.585000E-8	1.825148E-2
2.590000E-8	1.886643E-2
2.595000E-8	1.946768E-2
2.600000E-8	2.004494E-2
2.605000E-8	2.060679E-2
2.610000E-8	2.112410E-2
2.615000E-8	2.157974E-2
2.620000E-8	2.200284E-2
2.625000E-8	2.239340E-2
2.630000E-8	2.273427E-2
2.635000E-8	2.302376E-2
2.640000E-8	2.324645E-2
2.645000E-8	2.338519E-2
2.650000E-8	2.344172E-2
2.655000E-8	2.339547E-2
2.660000E-8	2.324131E-2
2.665000E-8	2.300321E-2
2.670000E-8	2.268974E-2
2.675000E-8	2.229233E-2
2.680000E-8	2.183155E-2
2.685000E-8	2.132965E-2
2.690000E-8	2.078665E-2
2.695000E-8	2.020938E-2
2.700000E-8	1.960643E-2
2.705000E-8	1.899319E-2
2.710000E-8	1.836454E-2
2.715000E-8	1.773075E-2
2.720000E-8	1.711408E-2
2.725000E-8	1.650941E-2
2.730000E-8	1.591844E-2
2.735000E-8	1.535488E-2
2.740000E-8	1.483415E-2
2.745000E-8	1.435452E-2
2.750000E-8	1.391943E-2
2.755000E-8	1.352545E-2
2.760000E-8	1.318629E-2
2.765000E-8	1.291050E-2
2.770000E-8	1.267069E-2
2.775000E-8	1.249426E-2
2.780000E-8	1.242060E-2
2.785000E-8	1.242231E-2
2.790000E-8	1.248055E-2
2.795000E-8	1.263815E-2
2.800000E-8	1.288824E-2
2.805000E-8	1.321027E-2
2.810000E-8	1.361453E-2
2.815000E-8	1.410443E-2
2.820000E-8	1.465429E-2
2.825000E-8	1.524183E-2
2.830000E-8	1.585335E-2
2.835000E-8	1.647344E-2
2.840000E-8	1.709867E-2
2.845000E-8	1.771190E-2
2.850000E-8	1.830801E-2
2.855000E-8	1.888356E-2
2.860000E-8	1.943171E-2
2.865000E-8	1.995416E-2
2.870000E-8	2.044063E-2
2.875000E-8	2.088429E-2
2.880000E-8	2.129026E-2
2.885000E-8	2.165854E-2
2.890000E-8	2.197201E-2
2.895000E-8	2.221182E-2
2.900000E-8	2.236770E-2
2.905000E-8	2.241566E-2
2.910000E-8	2.235057E-2
2.915000E-8	2.216729E-2
2.920000E-8	2.187437E-2
2.925000E-8	2.148211E-2
2.930000E-8	2.100077E-2
2.935000E-8	2.043549E-2
2.940000E-8	1.980170E-2
2.945000E-8	1.912166E-2
2.950000E-8	1.841079E-2
2.955000E-8	1.767593E-2
2.960000E-8	1.693594E-2
2.965000E-8	1.620622E-2
2.970000E-8	1.549363E-2
2.975000E-8	1.479818E-2
2.980000E-8	1.412327E-2
2.985000E-8	1.347064E-2
2.990000E-8	1.286254E-2
2.995000E-8	1.231954E-2
3.000000E-8	1.185704E-2
3.005000E-8	1.148362E-2
3.010000E-8	1.120269E-2
3.015000E-8	1.100742E-2
3.020000E-8	1.089608E-2
3.025000E-8	1.087038E-2
3.030000E-8	1.093033E-2
3.035000E-8	1.108793E-2
3.040000E-8	1.133288E-2
3.045000E-8	1.163778E-2
3.050000E-8	1.199579E-2
3.055000E-8	1.240176E-2
3.060000E-8	1.284027E-2
3.065000E-8	1.332333E-2
3.070000E-8	1.383378E-2
3.075000E-8	1.434938E-2
3.080000E-8	1.488725E-2
3.085000E-8	1.546623E-2
3.090000E-8	1.607775E-2
3.095000E-8	1.671154E-2
3.100000E-8	1.736417E-2
3.105000E-8	1.798940E-2
3.110000E-8	1.857523E-2
3.115000E-8	1.912680E-2
3.120000E-8	1.961157E-2
3.125000E-8	2.001582E-2
3.130000E-8	2.035499E-2
3.135000E-8	2.061193E-2
3.140000E-8	2.076438E-2
3.145000E-8	2.080549E-2
3.150000E-8	2.076267E-2
3.155000E-8	2.064619E-2
3.160000E-8	2.045776E-2
3.165000E-8	2.022309E-2
3.170000E-8	1.996443E-2
3.175000E-8	1.967494E-2
3.180000E-8	1.934606E-2
3.185000E-8	1.898634E-2
3.190000E-8	1.859065E-2
3.195000E-8	1.816070E-2
3.200000E-8	1.769306E-2
3.205000E-8	1.717575E-2
3.210000E-8	1.660362E-2
3.215000E-8	1.599210E-2
3.220000E-8	1.537030E-2
3.225000E-8	1.473822E-2
3.230000E-8	1.409758E-2
3.235000E-8	1.345694E-2
3.240000E-8	1.285226E-2
3.245000E-8	1.230926E-2
3.250000E-8	1.182792E-2
3.255000E-8	1.142195E-2
3.260000E-8	1.109135E-2
3.265000E-8	1.083783E-2
3.270000E-8	1.065969E-2
3.275000E-8	1.053807E-2
3.280000E-8	1.046784E-2
3.285000E-8	1.045756E-2
3.290000E-8	1.051066E-2
3.295000E-8	1.063228E-2
3.300000E-8	1.082584E-2
3.305000E-8	1.108793E-2
3.310000E-8	1.142195E-2
3.315000E-8	1.181079E-2
3.320000E-8	1.223560E-2
3.325000E-8	1.272551E-2
3.330000E-8	1.330277E-2
3.335000E-8	1.391087E-2
3.340000E-8	1.452582E-2
3.345000E-8	1.517845E-2
3.350000E-8	1.582081E-2
3.355000E-8	1.639122E-2
3.360000E-8	1.689654E-2
3.365000E-8	1.735904E-2
3.370000E-8	1.775644E-2
3.375000E-8	1.808533E-2
3.380000E-8	1.838167E-2
3.385000E-8	1.863347E-2
3.390000E-8	1.881676E-2
3.395000E-8	1.895208E-2
3.400000E-8	1.905657E-2
3.405000E-8	1.910796E-2
3.410000E-8	1.911995E-2
3.415000E-8	1.911310E-2
3.420000E-8	1.905828E-2
3.425000E-8	1.893666E-2
3.430000E-8	1.876023E-2
3.435000E-8	1.851014E-2
3.440000E-8	1.816412E-2
3.445000E-8	1.773931E-2
3.450000E-8	1.724256E-2
3.455000E-8	1.668242E-2
3.460000E-8	1.609830E-2
3.465000E-8	1.549363E-2
3.470000E-8	1.485813E-2
3.475000E-8	1.421406E-2
3.480000E-8	1.358883E-2
3.485000E-8	1.299273E-2
3.490000E-8	1.242745E-2
3.495000E-8	1.191699E-2
3.500000E-8	1.148190E-2
3.505000E-8	1.112390E-2
3.510000E-8	1.083612E-2
3.515000E-8	1.062200E-2
3.520000E-8	1.046784E-2
3.525000E-8	1.035478E-2
3.530000E-8	1.029826E-2
3.535000E-8	1.031881E-2
3.540000E-8	1.040103E-2
3.545000E-8	1.053978E-2
3.550000E-8	1.073677E-2
3.555000E-8	1.097830E-2
3.560000E-8	1.125579E-2
3.565000E-8	1.156584E-2
3.570000E-8	1.191528E-2
3.575000E-8	1.230412E-2
3.580000E-8	1.273236E-2
3.585000E-8	1.319828E-2
3.590000E-8	1.368476E-2
3.595000E-8	1.416781E-2
3.600000E-8	1.464230E-2
3.605000E-8	1.511507E-2
3.610000E-8	1.557414E-2
3.615000E-8	1.602979E-2
3.620000E-8	1.647344E-2
3.625000E-8	1.688797E-2
3.630000E-8	1.727510E-2
3.635000E-8	1.761940E-2
3.640000E-8	1.789862E-2
3.645000E-8	1.811445E-2
3.650000E-8	1.826690E-2
3.655000E-8	1.833370E-2
3.660000E-8	1.834227E-2
3.665000E-8	1.830972E-2
3.670000E-8	1.821380E-2
3.675000E-8	1.805278E-2
3.680000E-8	1.785237E-2
3.685000E-8	1.761084E-2
3.690000E-8	1.732992E-2
3.695000E-8	1.701473E-2
3.700000E-8	1.667899E-2
3.705000E-8	1.632099E-2
3.710000E-8	1.591673E-2
3.715000E-8	1.545424E-2
3.720000E-8	1.494206E-2
3.725000E-8	1.437336E-2
3.730000E-8	1.376355E-2
3.735000E-8	1.312805E-2
3.740000E-8	1.248055E-2
3.745000E-8	1.185533E-2
3.750000E-8	1.129519E-2
3.755000E-8	1.079159E-2
3.760000E-8	1.035650E-2
3.765000E-8	1.001904E-2
3.770000E-8	9.777519E-3
3.775000E-8	9.621640E-3
3.780000E-8	9.556548E-3
3.785000E-8	9.568539E-3
3.790000E-8	9.628492E-3
3.795000E-8	9.746686E-3
3.800000E-8	9.924833E-3
3.805000E-8	1.013210E-2
3.810000E-8	1.035136E-2
3.815000E-8	1.059288E-2
3.820000E-8	1.087209E-2
3.825000E-8	1.119927E-2
3.830000E-8	1.156413E-2
3.835000E-8	1.197181E-2
3.840000E-8	1.243259E-2
3.845000E-8	1.291736E-2
3.850000E-8	1.342268E-2
3.855000E-8	1.395027E-2
3.860000E-8	1.448813E-2
3.865000E-8	1.501743E-2
3.870000E-8	1.551419E-2
3.875000E-8	1.596469E-2
3.880000E-8	1.637409E-2
3.885000E-8	1.672696E-2
3.890000E-8	1.698561E-2
3.895000E-8	1.716376E-2
3.900000E-8	1.728024E-2
3.905000E-8	1.733163E-2
3.910000E-8	1.732649E-2
3.915000E-8	1.727339E-2
3.920000E-8	1.715006E-2
3.925000E-8	1.695649E-2
3.930000E-8	1.672524E-2
3.935000E-8	1.644432E-2
3.940000E-8	1.611030E-2
3.945000E-8	1.575058E-2
3.950000E-8	1.537887E-2
3.955000E-8	1.497118E-2
3.960000E-8	1.453609E-2
3.965000E-8	1.409587E-2
3.970000E-8	1.364193E-2
3.975000E-8	1.316402E-2
3.980000E-8	1.268268E-2
3.985000E-8	1.221505E-2
3.990000E-8	1.175598E-2
3.995000E-8	1.130718E-2
4.000000E-8	1.088580E-2
4.005000E-8	1.050210E-2
4.010000E-8	1.016636E-2
4.015000E-8	9.882009E-3
4.020000E-8	9.649048E-3
4.025000E-8	9.467475E-3
4.030000E-8	9.362985E-3
4.035000E-8	9.332152E-3
4.040000E-8	9.345855E-3
4.045000E-8	9.400670E-3
4.050000E-8	9.506873E-3
4.055000E-8	9.647335E-3
4.060000E-8	9.796361E-3
4.065000E-8	9.977934E-3
4.070000E-8	1.021432E-2
4.075000E-8	1.049182E-2
4.080000E-8	1.080186E-2
4.085000E-8	1.116158E-2
4.090000E-8	1.155214E-2
4.095000E-8	1.194440E-2
4.100000E-8	1.235380E-2
4.105000E-8	1.278375E-2
4.110000E-8	1.321884E-2
4.115000E-8	1.364536E-2
4.120000E-8	1.404790E-2
4.125000E-8	1.442304E-2
4.130000E-8	1.476392E-2
4.135000E-8	1.507396E-2
4.140000E-8	1.534632E-2
4.145000E-8	1.558785E-2
4.150000E-8	1.579854E-2
4.155000E-8	1.597669E-2
4.160000E-8	1.613428E-2
4.165000E-8	1.626789E-2
4.170000E-8	1.633812E-2
4.175000E-8	1.633469E-2
4.180000E-8	1.627988E-2
4.185000E-8	1.617710E-2
4.190000E-8	1.601437E-2
4.195000E-8	1.577798E-2
4.200000E-8	1.546623E-2
4.205000E-8	1.508766E-2
4.210000E-8	1.466114E-2
4.215000E-8	1.418151E-2
4.220000E-8	1.367619E-2
4.225000E-8	1.317944E-2
4.230000E-8	1.269296E-2
4.235000E-8	1.220820E-2
4.240000E-8	1.174912E-2
4.245000E-8	1.132945E-2
4.250000E-8	1.094061E-2
4.255000E-8	1.058603E-2
4.260000E-8	1.025714E-2
4.265000E-8	9.959092E-3
4.270000E-8	9.703862E-3
4.275000E-8	9.479466E-3
4.280000E-8	9.287615E-3
4.285000E-8	9.152292E-3
4.290000E-8	9.061506E-3
4.295000E-8	8.992988E-3
4.300000E-8	8.970719E-3
4.305000E-8	9.001553E-3
4.310000E-8	9.075209E-3
4.315000E-8	9.205394E-3
4.320000E-8	9.390392E-3
4.325000E-8	9.616502E-3
4.330000E-8	9.882009E-3
4.335000E-8	1.017492E-2
4.340000E-8	1.049867E-2
4.345000E-8	1.086353E-2
4.350000E-8	1.126607E-2
4.355000E-8	1.169431E-2
4.360000E-8	1.214482E-2
4.365000E-8	1.259361E-2
4.370000E-8	1.304240E-2
4.375000E-8	1.347920E-2
4.380000E-8	1.388689E-2
4.385000E-8	1.425174E-2
4.390000E-8	1.456008E-2
4.395000E-8	1.479818E-2
4.400000E-8	1.495919E-2
4.405000E-8	1.504827E-2
4.410000E-8	1.506368E-2
4.415000E-8	1.500716E-2
4.420000E-8	1.488896E-2
4.425000E-8	1.472109E-2
4.430000E-8	1.452753E-2
4.435000E-8	1.431512E-2
4.440000E-8	1.410272E-2
4.445000E-8	1.390402E-2
4.450000E-8	1.370017E-2
4.455000E-8	1.347578E-2
4.460000E-8	1.324796E-2
4.465000E-8	1.300986E-2
4.470000E-8	1.273064E-2
4.475000E-8	1.242231E-2
4.480000E-8	1.209343E-2
4.485000E-8	1.172172E-2
4.490000E-8	1.131232E-2
4.495000E-8	1.089608E-2
4.500000E-8	1.046784E-2
4.505000E-8	1.002590E-2
4.510000E-8	9.614789E-3
4.515000E-8	9.272199E-3
4.520000E-8	9.001553E-3
4.525000E-8	8.794286E-3
4.530000E-8	8.660675E-3
4.535000E-8	8.593870E-3
4.540000E-8	8.583593E-3
4.545000E-8	8.636694E-3
4.550000E-8	8.760027E-3
4.555000E-8	8.926183E-3
4.560000E-8	9.114607E-3
4.565000E-8	9.335578E-3
4.570000E-8	9.563400E-3
4.575000E-8	9.765528E-3
4.580000E-8	9.955666E-3
4.585000E-8	1.016636E-2
4.590000E-8	1.039589E-2
4.595000E-8	1.062886E-2
4.600000E-8	1.086524E-2
4.605000E-8	1.110677E-2
4.610000E-8	1.137228E-2
4.615000E-8	1.166176E-2
4.620000E-8	1.196496E-2
4.625000E-8	1.227843E-2
4.630000E-8	1.259875E-2
4.635000E-8	1.291907E-2
4.640000E-8	1.320513E-2
4.645000E-8	1.346379E-2
4.650000E-8	1.368476E-2
4.655000E-8	1.384578E-2
4.660000E-8	1.393142E-2
4.665000E-8	1.396397E-2
4.670000E-8	1.396397E-2
4.675000E-8	1.392286E-2
4.680000E-8	1.383892E-2
4.685000E-8	1.371388E-2
4.690000E-8	1.354772E-2
4.695000E-8	1.335758E-2
4.700000E-8	1.315717E-2
4.705000E-8	1.292592E-2
4.710000E-8	1.267583E-2
4.715000E-8	1.242574E-2
4.720000E-8	1.217051E-2
4.725000E-8	1.191185E-2
4.730000E-8	1.166519E-2
4.735000E-8	1.140311E-2
4.740000E-8	1.109649E-2
4.745000E-8	1.077959E-2
4.750000E-8	1.046099E-2
4.755000E-8	1.011668E-2
4.760000E-8	9.765528E-3
4.765000E-8	9.419512E-3
4.770000E-8	9.083774E-3
4.775000E-8	8.765165E-3
4.780000E-8	8.473964E-3
4.785000E-8	8.211883E-3
4.790000E-8	8.004616E-3
4.795000E-8	7.879570E-3
4.800000E-8	7.826469E-3
4.805000E-8	7.833321E-3
4.810000E-8	7.915542E-3
4.815000E-8	8.066282E-3
4.820000E-8	8.266697E-3
4.825000E-8	8.506510E-3
4.830000E-8	8.772017E-3
4.835000E-8	9.034099E-3
4.840000E-8	9.308171E-3
4.845000E-8	9.613076E-3
4.850000E-8	9.914555E-3
4.855000E-8	1.020918E-2
4.860000E-8	1.053122E-2
4.865000E-8	1.087552E-2
4.870000E-8	1.123353E-2
4.875000E-8	1.159496E-2
4.880000E-8	1.195810E-2
4.885000E-8	1.232296E-2
4.890000E-8	1.268268E-2
4.895000E-8	1.301499E-2
4.900000E-8	1.331819E-2
4.905000E-8	1.358027E-2
4.910000E-8	1.377212E-2
4.915000E-8	1.390059E-2
4.920000E-8	1.398624E-2
4.925000E-8	1.401364E-2
4.930000E-8	1.398452E-2
4.935000E-8	1.392800E-2
4.940000E-8	1.382351E-2
4.945000E-8	1.365050E-2
4.950000E-8	1.343981E-2
4.955000E-8	1.320684E-2
4.960000E-8	1.294134E-2
4.965000E-8	1.265356E-2
4.970000E-8	1.234523E-2
4.975000E-8	1.201634E-2
4.980000E-8	1.167033E-2
4.985000E-8	1.132431E-2
4.990000E-8	1.097830E-2
4.995000E-8	1.063571E-2
5.000000E-8	1.030511E-2
5.005000E-8	1.000363E-2
5.010000E-8	9.731269E-3
5.015000E-8	9.464049E-3
5.020000E-8	9.220810E-3
5.025000E-8	9.010117E-3
5.030000E-8	8.821693E-3
5.035000E-8	8.672666E-3
5.040000E-8	8.559611E-3
5.045000E-8	8.453409E-3
5.050000E-8	8.374613E-3
5.055000E-8	8.357483E-3
5.060000E-8	8.378039E-3
5.065000E-8	8.429427E-3
5.070000E-8	8.535630E-3
5.075000E-8	8.691509E-3
5.080000E-8	8.869655E-3
5.085000E-8	9.056367E-3
5.090000E-8	9.275625E-3
5.095000E-8	9.529141E-3
5.100000E-8	9.791222E-3
5.105000E-8	1.006529E-2
5.110000E-8	1.034279E-2
5.115000E-8	1.059802E-2
5.120000E-8	1.083783E-2
5.125000E-8	1.108964E-2
5.130000E-8	1.133116E-2
5.135000E-8	1.155214E-2
5.140000E-8	1.176283E-2
5.145000E-8	1.195297E-2
5.150000E-8	1.210371E-2
5.155000E-8	1.222532E-2
5.160000E-8	1.231954E-2
5.165000E-8	1.239148E-2
5.170000E-8	1.244287E-2
5.175000E-8	1.246171E-2
5.180000E-8	1.244801E-2
5.185000E-8	1.242060E-2
5.190000E-8	1.237435E-2
5.195000E-8	1.229556E-2
5.200000E-8	1.219620E-2
5.205000E-8	1.208144E-2
5.210000E-8	1.194440E-2
5.215000E-8	1.178852E-2
5.220000E-8	1.162579E-2
5.225000E-8	1.143223E-2
5.230000E-8	1.119242E-2
5.235000E-8	1.090978E-2
5.240000E-8	1.059117E-2
5.245000E-8	1.026057E-2
5.250000E-8	9.931684E-3
5.255000E-8	9.592520E-3
5.260000E-8	9.256782E-3
5.265000E-8	8.957016E-3
5.270000E-8	8.689796E-3
5.275000E-8	8.465399E-3
5.280000E-8	8.288965E-3
5.285000E-8	8.150216E-3
5.290000E-8	8.066282E-3
5.295000E-8	8.050865E-3
5.300000E-8	8.081698E-3
5.305000E-8	8.141652E-3
5.310000E-8	8.229012E-3
5.315000E-8	8.311234E-3
5.320000E-8	8.367761E-3
5.325000E-8	8.426001E-3
5.330000E-8	8.508223E-3
5.335000E-8	8.593870E-3
5.340000E-8	8.689796E-3
5.345000E-8	8.826832E-3
5.350000E-8	8.992988E-3
5.355000E-8	9.169422E-3
5.360000E-8	9.359559E-3
5.365000E-8	9.571965E-3
5.370000E-8	9.782658E-3
5.375000E-8	9.977934E-3
5.380000E-8	1.015608E-2
5.385000E-8	1.033080E-2
5.390000E-8	1.050895E-2
5.395000E-8	1.067168E-2
5.400000E-8	1.081557E-2
5.405000E-8	1.095774E-2
5.410000E-8	1.110163E-2
5.415000E-8	1.123867E-2
5.420000E-8	1.138084E-2
5.425000E-8	1.152987E-2
5.430000E-8	1.165491E-2
5.435000E-8	1.175255E-2
5.440000E-8	1.183135E-2
5.445000E-8	1.187588E-2
5.450000E-8	1.186732E-2
5.455000E-8	1.181936E-2
5.460000E-8	1.172857E-2
5.465000E-8	1.156755E-2
5.470000E-8	1.134658E-2
5.475000E-8	1.108621E-2
5.480000E-8	1.079501E-2
5.485000E-8	1.047983E-2
5.490000E-8	1.016293E-2
5.495000E-8	9.876870E-3
5.500000E-8	9.619927E-3
5.505000E-8	9.380114E-3
5.510000E-8	9.157431E-3
5.515000E-8	8.958729E-3
5.520000E-8	8.787434E-3
5.525000E-8	8.624704E-3
5.530000E-8	8.473964E-3
5.535000E-8	8.338641E-3
5.540000E-8	8.218734E-3
5.545000E-8	8.114244E-3
5.550000E-8	8.025171E-3
5.555000E-8	7.960079E-3
5.560000E-8	7.920681E-3
5.565000E-8	7.906977E-3
5.570000E-8	7.912116E-3
5.575000E-8	7.949801E-3
5.580000E-8	8.038875E-3
5.585000E-8	8.158781E-3
5.590000E-8	8.288965E-3
5.595000E-8	8.439705E-3
5.600000E-8	8.599009E-3
5.605000E-8	8.753175E-3
5.610000E-8	8.917618E-3
5.615000E-8	9.104330E-3
5.620000E-8	9.308171E-3
5.625000E-8	9.522289E-3
5.630000E-8	9.748399E-3
5.635000E-8	9.981360E-3
5.640000E-8	1.021603E-2
5.645000E-8	1.044214E-2
5.650000E-8	1.064427E-2
5.655000E-8	1.080186E-2
5.660000E-8	1.092348E-2
5.665000E-8	1.102112E-2
5.670000E-8	1.109135E-2
5.675000E-8	1.111876E-2
5.680000E-8	1.110163E-2
5.685000E-8	1.105195E-2
5.690000E-8	1.098172E-2
5.695000E-8	1.090807E-2
5.700000E-8	1.082071E-2
5.705000E-8	1.071793E-2
5.710000E-8	1.062543E-2
5.715000E-8	1.052437E-2
5.720000E-8	1.040275E-2
5.725000E-8	1.028113E-2
5.730000E-8	1.014580E-2
5.735000E-8	9.971082E-3
5.740000E-8	9.779232E-3
5.745000E-8	9.590807E-3
5.750000E-8	9.393818E-3
5.755000E-8	9.195116E-3
5.760000E-8	9.003265E-3
5.765000E-8	8.804563E-3
5.770000E-8	8.605861E-3
5.775000E-8	8.415724E-3
5.780000E-8	8.220447E-3
5.785000E-8	8.026884E-3
5.790000E-8	7.857302E-3
5.795000E-8	7.697998E-3
5.800000E-8	7.538693E-3
5.805000E-8	7.386241E-3
5.810000E-8	7.257769E-3
5.815000E-8	7.160131E-3
5.820000E-8	7.105317E-3
5.825000E-8	7.117307E-3
5.830000E-8	7.185825E-3
5.835000E-8	7.293741E-3
5.840000E-8	7.446194E-3
5.845000E-8	7.653461E-3
5.850000E-8	7.889848E-3
5.855000E-8	8.121096E-3
5.860000E-8	8.343780E-3
5.865000E-8	8.573315E-3
5.870000E-8	8.811415E-3
5.875000E-8	9.049515E-3
5.880000E-8	9.285902E-3
5.885000E-8	9.506873E-3
5.890000E-8	9.690158E-3
5.895000E-8	9.834046E-3
5.900000E-8	9.959092E-3
5.905000E-8	1.006187E-2
5.910000E-8	1.014066E-2
5.915000E-8	1.021603E-2
5.920000E-8	1.028113E-2
5.925000E-8	1.030853E-2
5.930000E-8	1.030853E-2
5.935000E-8	1.029140E-2
5.940000E-8	1.025372E-2
5.945000E-8	1.020918E-2
5.950000E-8	1.016807E-2
5.955000E-8	1.012182E-2
5.960000E-8	1.008756E-2
5.965000E-8	1.006358E-2
5.970000E-8	1.001904E-2
5.975000E-8	9.947101E-3
5.980000E-8	9.852889E-3
5.985000E-8	9.731269E-3
5.990000E-8	9.585668E-3
5.995000E-8	9.412661E-3
6.000000E-8	9.213958E-3
6.005000E-8	9.006691E-3
6.010000E-8	8.775443E-3
6.015000E-8	8.506510E-3
6.020000E-8	8.232438E-3
6.025000E-8	7.972070E-3
6.030000E-8	7.728831E-3
6.035000E-8	7.518138E-3
6.040000E-8	7.341704E-3
6.045000E-8	7.201242E-3
6.050000E-8	7.124159E-3
6.055000E-8	7.084761E-3
6.060000E-8	7.043651E-3
6.065000E-8	7.033373E-3
6.070000E-8	7.081336E-3
6.075000E-8	7.141289E-3
6.080000E-8	7.194390E-3
6.085000E-8	7.269760E-3
6.090000E-8	7.348556E-3
6.095000E-8	7.410222E-3
6.100000E-8	7.478740E-3
6.105000E-8	7.571239E-3
6.110000E-8	7.674016E-3
6.115000E-8	7.800775E-3
6.120000E-8	7.973782E-3
6.125000E-8	8.186188E-3
6.130000E-8	8.415724E-3
6.135000E-8	8.643546E-3
6.140000E-8	8.859378E-3
6.145000E-8	9.073496E-3
6.150000E-8	9.289328E-3
6.155000E-8	9.470901E-3
6.160000E-8	9.601085E-3
6.165000E-8	9.714140E-3
6.170000E-8	9.792935E-3
6.175000E-8	9.820343E-3
6.180000E-8	9.813491E-3
6.185000E-8	9.787797E-3
6.190000E-8	9.751825E-3
6.195000E-8	9.709001E-3
6.200000E-8	9.664464E-3
6.205000E-8	9.625066E-3
6.210000E-8	9.597659E-3
6.215000E-8	9.570252E-3
6.220000E-8	9.522289E-3
6.225000E-8	9.465762E-3
6.230000E-8	9.404096E-3
6.235000E-8	9.311596E-3
6.240000E-8	9.200255E-3
6.245000E-8	9.088913E-3
6.250000E-8	8.957016E-3
6.255000E-8	8.794286E-3
6.260000E-8	8.626416E-3
6.265000E-8	8.461973E-3
6.270000E-8	8.285539E-3
6.275000E-8	8.109106E-3
6.280000E-8	7.954940E-3
6.285000E-8	7.809339E-3
6.290000E-8	7.668877E-3
6.295000E-8	7.555823E-3
6.300000E-8	7.454759E-3
6.305000E-8	7.353695E-3
6.310000E-8	7.271473E-3
6.315000E-8	7.213233E-3
6.320000E-8	7.151566E-3
6.325000E-8	7.115595E-3
6.330000E-8	7.119020E-3
6.335000E-8	7.134437E-3
6.340000E-8	7.158418E-3
6.345000E-8	7.213233E-3
6.350000E-8	7.274899E-3
6.355000E-8	7.343417E-3
6.360000E-8	7.449620E-3
6.365000E-8	7.578091E-3
6.370000E-8	7.691146E-3
6.375000E-8	7.805913E-3
6.380000E-8	7.939523E-3
6.385000E-8	8.071421E-3
6.390000E-8	8.203318E-3
6.395000E-8	8.359196E-3
6.400000E-8	8.528778E-3
6.405000E-8	8.703499E-3
6.410000E-8	8.893637E-3
6.415000E-8	9.085487E-3
6.420000E-8	9.249930E-3
6.425000E-8	9.385253E-3
6.430000E-8	9.500021E-3
6.435000E-8	9.587381E-3
6.440000E-8	9.640483E-3
6.445000E-8	9.661038E-3
6.450000E-8	9.643909E-3
6.455000E-8	9.594233E-3
6.460000E-8	9.522289E-3
6.465000E-8	9.428077E-3
6.470000E-8	9.330439E-3
6.475000E-8	9.248217E-3
6.480000E-8	9.164283E-3
6.485000E-8	9.085487E-3
6.490000E-8	9.018682E-3
6.495000E-8	8.936460E-3
6.500000E-8	8.830258E-3
6.505000E-8	8.717203E-3
6.510000E-8	8.592157E-3
6.515000E-8	8.444844E-3
6.520000E-8	8.302669E-3
6.525000E-8	8.167346E-3
6.530000E-8	8.004616E-3
6.535000E-8	7.819617E-3
6.540000E-8	7.641470E-3
6.545000E-8	7.463323E-3
6.550000E-8	7.278325E-3
6.555000E-8	7.113882E-3
6.560000E-8	6.968281E-3
6.565000E-8	6.827819E-3
6.570000E-8	6.709625E-3
6.575000E-8	6.622265E-3
6.580000E-8	6.538330E-3
6.585000E-8	6.480090E-3
6.590000E-8	6.469812E-3
6.595000E-8	6.492081E-3
6.600000E-8	6.540043E-3
6.605000E-8	6.634256E-3
6.610000E-8	6.769579E-3
6.615000E-8	6.923744E-3
6.620000E-8	7.098465E-3
6.625000E-8	7.290315E-3
6.630000E-8	7.473601E-3
6.635000E-8	7.629480E-3
6.640000E-8	7.781932E-3
6.645000E-8	7.932672E-3
6.650000E-8	8.056004E-3
6.655000E-8	8.153642E-3
6.660000E-8	8.227299E-3
6.665000E-8	8.261558E-3
6.670000E-8	8.273549E-3
6.675000E-8	8.285539E-3
6.680000E-8	8.314660E-3
6.685000E-8	8.372900E-3
6.690000E-8	8.463686E-3
6.695000E-8	8.575028E-3
6.700000E-8	8.694934E-3
6.705000E-8	8.823406E-3
6.710000E-8	8.955303E-3
6.715000E-8	9.071783E-3
6.720000E-8	9.148866E-3
6.725000E-8	9.177986E-3
6.730000E-8	9.148866E-3
6.735000E-8	9.063219E-3
6.740000E-8	8.929609E-3
6.745000E-8	8.761740E-3
6.750000E-8	8.569889E-3
6.755000E-8	8.360909E-3
6.760000E-8	8.153642E-3
6.765000E-8	7.975495E-3
6.770000E-8	7.836746E-3
6.775000E-8	7.733969E-3
6.780000E-8	7.668877E-3
6.785000E-8	7.643183E-3
6.790000E-8	7.631192E-3
6.795000E-8	7.620915E-3
6.800000E-8	7.595221E-3
6.805000E-8	7.524990E-3
6.810000E-8	7.417074E-3
6.815000E-8	7.290315E-3
6.820000E-8	7.143002E-3
6.825000E-8	6.981984E-3
6.830000E-8	6.824393E-3
6.835000E-8	6.692496E-3
6.840000E-8	6.599997E-3
6.845000E-8	6.562312E-3
6.850000E-8	6.586293E-3
6.855000E-8	6.675366E-3
6.860000E-8	6.824393E-3
6.865000E-8	7.014530E-3
6.870000E-8	7.211520E-3
6.875000E-8	7.403370E-3
6.880000E-8	7.586656E-3
6.885000E-8	7.744247E-3
6.890000E-8	7.857302E-3
6.895000E-8	7.924107E-3
6.900000E-8	7.948088E-3
6.905000E-8	7.934385E-3
6.910000E-8	7.901839E-3
6.915000E-8	7.855589E-3
6.920000E-8	7.812765E-3
6.925000E-8	7.809339E-3
6.930000E-8	7.853876E-3
6.935000E-8	7.925820E-3
6.940000E-8	8.037162E-3
6.945000E-8	8.177624E-3
6.950000E-8	8.295817E-3
6.955000E-8	8.402020E-3
6.960000E-8	8.503084E-3
6.965000E-8	8.564750E-3
6.970000E-8	8.573315E-3
6.975000E-8	8.557898E-3
6.980000E-8	8.503084E-3
6.985000E-8	8.420862E-3
6.990000E-8	8.328363E-3
6.995000E-8	8.223873E-3
7.000000E-8	8.102254E-3
7.005000E-8	7.987486E-3
7.010000E-8	7.891561E-3
7.015000E-8	7.809339E-3
7.020000E-8	7.740821E-3
7.025000E-8	7.675729E-3
7.030000E-8	7.588369E-3
7.035000E-8	7.492444E-3
7.040000E-8	7.389667E-3
7.045000E-8	7.273186E-3
7.050000E-8	7.151566E-3
7.055000E-8	7.038512E-3
7.060000E-8	6.934022E-3
7.065000E-8	6.851800E-3
7.070000E-8	6.781569E-3
7.075000E-8	6.704487E-3
7.080000E-8	6.651385E-3
7.085000E-8	6.647959E-3
7.090000E-8	6.651385E-3
7.095000E-8	6.637681E-3
7.100000E-8	6.644533E-3
7.105000E-8	6.656524E-3
7.110000E-8	6.637681E-3
7.115000E-8	6.606848E-3
7.120000E-8	6.569163E-3
7.125000E-8	6.534904E-3
7.130000E-8	6.528053E-3
7.135000E-8	6.529766E-3
7.140000E-8	6.533191E-3
7.145000E-8	6.572589E-3
7.150000E-8	6.659950E-3
7.155000E-8	6.767866E-3
7.160000E-8	6.915179E-3
7.165000E-8	7.107030E-3
7.170000E-8	7.314297E-3
7.175000E-8	7.507860E-3
7.180000E-8	7.701423E-3
7.185000E-8	7.891561E-3
7.190000E-8	8.066282E-3
7.195000E-8	8.199892E-3
7.200000E-8	8.270123E-3
7.205000E-8	8.299243E-3
7.210000E-8	8.309521E-3
7.215000E-8	8.282114E-3
7.220000E-8	8.225586E-3
7.225000E-8	8.170772E-3
7.230000E-8	8.107393E-3
7.235000E-8	8.008041E-3
7.240000E-8	7.894987E-3
7.245000E-8	7.797349E-3
7.250000E-8	7.715127E-3
7.255000E-8	7.648322E-3
7.260000E-8	7.603785E-3
7.265000E-8	7.564387E-3
7.270000E-8	7.514712E-3
7.275000E-8	7.465036E-3
7.280000E-8	7.417074E-3
7.285000E-8	7.357120E-3
7.290000E-8	7.276612E-3
7.295000E-8	7.189251E-3
7.300000E-8	7.084761E-3
7.305000E-8	6.959716E-3
7.310000E-8	6.822680E-3
7.315000E-8	6.673653E-3
7.320000E-8	6.521201E-3
7.325000E-8	6.380739E-3
7.330000E-8	6.253981E-3
7.335000E-8	6.151204E-3
7.340000E-8	6.091250E-3
7.345000E-8	6.070695E-3
7.350000E-8	6.079260E-3
7.355000E-8	6.123796E-3
7.360000E-8	6.195740E-3
7.365000E-8	6.283101E-3
7.370000E-8	6.397868E-3
7.375000E-8	6.528053E-3
7.380000E-8	6.653098E-3
7.385000E-8	6.776430E-3
7.390000E-8	6.903189E-3
7.395000E-8	7.012818E-3
7.400000E-8	7.113882E-3
7.405000E-8	7.214946E-3
7.410000E-8	7.298880E-3
7.415000E-8	7.358833E-3
7.420000E-8	7.422213E-3
7.425000E-8	7.485592E-3
7.430000E-8	7.526703E-3
7.435000E-8	7.555823E-3
7.440000E-8	7.595221E-3
7.445000E-8	7.620915E-3
7.450000E-8	7.619202E-3
7.455000E-8	7.615776E-3
7.460000E-8	7.615776E-3
7.465000E-8	7.626054E-3
7.470000E-8	7.648322E-3
7.475000E-8	7.667164E-3
7.480000E-8	7.686007E-3
7.485000E-8	7.721979E-3
7.490000E-8	7.756238E-3
7.495000E-8	7.773367E-3
7.500000E-8	7.790497E-3
7.505000E-8	7.787071E-3
7.510000E-8	7.751099E-3
7.515000E-8	7.691146E-3
7.520000E-8	7.605498E-3
7.525000E-8	7.473601E-3
7.530000E-8	7.310871E-3
7.535000E-8	7.134437E-3
7.540000E-8	6.947725E-3
7.545000E-8	6.767866E-3
7.550000E-8	6.608561E-3
7.555000E-8	6.468099E-3
7.560000E-8	6.355045E-3
7.565000E-8	6.277962E-3
7.570000E-8	6.233425E-3
7.575000E-8	6.202592E-3
7.580000E-8	6.176898E-3
7.585000E-8	6.168333E-3
7.590000E-8	6.166620E-3
7.595000E-8	6.166620E-3
7.600000E-8	6.175185E-3
7.605000E-8	6.185463E-3
7.610000E-8	6.188889E-3
7.615000E-8	6.197453E-3
7.620000E-8	6.219722E-3
7.625000E-8	6.253981E-3
7.630000E-8	6.312221E-3
7.635000E-8	6.394443E-3
7.640000E-8	6.488655E-3
7.645000E-8	6.596571E-3
7.650000E-8	6.707912E-3
7.655000E-8	6.805551E-3
7.660000E-8	6.887772E-3
7.665000E-8	6.959716E-3
7.670000E-8	7.016243E-3
7.675000E-8	7.059067E-3
7.680000E-8	7.096752E-3
7.685000E-8	7.122446E-3
7.690000E-8	7.132724E-3
7.695000E-8	7.139576E-3
7.700000E-8	7.163557E-3
7.705000E-8	7.213233E-3
7.710000E-8	7.268047E-3
7.715000E-8	7.321149E-3
7.720000E-8	7.386241E-3
7.725000E-8	7.441055E-3
7.730000E-8	7.471888E-3
7.735000E-8	7.490731E-3
7.740000E-8	7.487305E-3
7.745000E-8	7.447907E-3
7.750000E-8	7.386241E-3
7.755000E-8	7.307445E-3
7.760000E-8	7.221797E-3
7.765000E-8	7.131011E-3
7.770000E-8	7.009392E-3
7.775000E-8	6.860365E-3
7.780000E-8	6.730181E-3
7.785000E-8	6.630830E-3
7.790000E-8	6.534904E-3
7.795000E-8	6.452683E-3
7.800000E-8	6.406433E-3
7.805000E-8	6.361896E-3
7.810000E-8	6.300230E-3
7.815000E-8	6.238564E-3
7.820000E-8	6.164907E-3
7.825000E-8	6.060417E-3
7.830000E-8	5.947363E-3
7.835000E-8	5.854863E-3
7.840000E-8	5.757225E-3
7.845000E-8	5.649309E-3
7.850000E-8	5.558523E-3
7.855000E-8	5.498570E-3
7.860000E-8	5.469450E-3
7.865000E-8	5.464311E-3
7.870000E-8	5.474588E-3
7.875000E-8	5.520838E-3
7.880000E-8	5.596208E-3
7.885000E-8	5.668152E-3
7.890000E-8	5.743522E-3
7.895000E-8	5.839447E-3
7.900000E-8	5.925094E-3
7.905000E-8	6.012455E-3
7.910000E-8	6.123796E-3
7.915000E-8	6.240277E-3
7.920000E-8	6.358471E-3
7.925000E-8	6.497220E-3
7.930000E-8	6.658237E-3
7.935000E-8	6.812402E-3
7.940000E-8	6.963142E-3
7.945000E-8	7.095039E-3
7.950000E-8	7.199529E-3
7.955000E-8	7.261195E-3
7.960000E-8	7.262908E-3
7.965000E-8	7.206381E-3
7.970000E-8	7.125872E-3
7.975000E-8	7.021382E-3
7.980000E-8	6.896337E-3
7.985000E-8	6.798699E-3
7.990000E-8	6.747310E-3
7.995000E-8	6.728468E-3
8.000000E-8	6.754162E-3
8.005000E-8	6.829532E-3
8.010000E-8	6.918605E-3
8.015000E-8	6.997401E-3
8.020000E-8	7.076197E-3
8.025000E-8	7.139576E-3
8.030000E-8	7.161844E-3
8.035000E-8	7.141289E-3
8.040000E-8	7.083048E-3
8.045000E-8	6.992262E-3
8.050000E-8	6.863791E-3
8.055000E-8	6.689070E-3
8.060000E-8	6.498932E-3
8.065000E-8	6.325925E-3
8.070000E-8	6.176898E-3
8.075000E-8	6.051853E-3
8.080000E-8	5.971344E-3
8.085000E-8	5.938798E-3
8.090000E-8	5.919955E-3
8.095000E-8	5.913104E-3
8.100000E-8	5.931946E-3
8.105000E-8	5.957640E-3
8.110000E-8	5.973057E-3
8.115000E-8	5.986760E-3
8.120000E-8	6.009029E-3
8.125000E-8	6.038149E-3
8.130000E-8	6.058704E-3
8.135000E-8	6.063843E-3
8.140000E-8	6.067269E-3
8.145000E-8	6.086112E-3
8.150000E-8	6.116945E-3
8.155000E-8	6.164907E-3
8.160000E-8	6.231712E-3
8.165000E-8	6.313934E-3
8.170000E-8	6.404720E-3
8.175000E-8	6.492081E-3
8.180000E-8	6.579441E-3
8.185000E-8	6.665089E-3
8.190000E-8	6.740458E-3
8.195000E-8	6.798699E-3
8.200000E-8	6.843235E-3
8.205000E-8	6.901476E-3
8.210000E-8	6.978559E-3
8.215000E-8	7.041938E-3
8.220000E-8	7.076197E-3
8.225000E-8	7.113882E-3
8.230000E-8	7.143002E-3
8.235000E-8	7.144715E-3
8.240000E-8	7.127585E-3
8.245000E-8	7.083048E-3
8.250000E-8	7.002540E-3
8.255000E-8	6.903189E-3
8.260000E-8	6.790134E-3
8.265000E-8	6.649672E-3
8.270000E-8	6.519488E-3
8.275000E-8	6.416711E-3
8.280000E-8	6.305369E-3
8.285000E-8	6.202592E-3
8.290000E-8	6.152917E-3
8.295000E-8	6.134074E-3
8.300000E-8	6.118658E-3
8.305000E-8	6.125509E-3
8.310000E-8	6.146065E-3
8.315000E-8	6.154630E-3
8.320000E-8	6.176898E-3
8.325000E-8	6.204305E-3
8.330000E-8	6.211157E-3
8.335000E-8	6.197453E-3
8.340000E-8	6.183750E-3
8.345000E-8	6.168333E-3
8.350000E-8	6.139213E-3
8.355000E-8	6.111806E-3
8.360000E-8	6.091250E-3
8.365000E-8	6.075834E-3
8.370000E-8	6.077547E-3
8.375000E-8	6.094676E-3
8.380000E-8	6.113519E-3
8.385000E-8	6.125509E-3
8.390000E-8	6.125509E-3
8.395000E-8	6.113519E-3
8.400000E-8	6.098102E-3
8.405000E-8	6.086112E-3
8.410000E-8	6.058704E-3
8.415000E-8	6.029584E-3
8.420000E-8	6.010742E-3
8.425000E-8	5.990186E-3
8.430000E-8	5.973057E-3
8.435000E-8	5.988473E-3
8.440000E-8	6.041575E-3
8.445000E-8	6.128935E-3
8.450000E-8	6.260832E-3
8.455000E-8	6.426989E-3
8.460000E-8	6.613700E-3
8.465000E-8	6.800412E-3
8.470000E-8	6.976846E-3
8.475000E-8	7.136150E-3
8.480000E-8	7.245779E-3
8.485000E-8	7.286890E-3
8.490000E-8	7.295454E-3
8.495000E-8	7.274899E-3
8.500000E-8	7.199529E-3
8.505000E-8	7.069345E-3
8.510000E-8	6.915179E-3
8.515000E-8	6.749023E-3
8.520000E-8	6.567450E-3
8.525000E-8	6.389304E-3
8.530000E-8	6.255694E-3
8.535000E-8	6.166620E-3
8.540000E-8	6.101528E-3
8.545000E-8	6.053565E-3
8.550000E-8	6.026158E-3
8.555000E-8	5.988473E-3
8.560000E-8	5.938798E-3
8.565000E-8	5.895974E-3
8.570000E-8	5.842873E-3
8.575000E-8	5.758938E-3
8.580000E-8	5.663013E-3
8.585000E-8	5.563662E-3
8.590000E-8	5.454033E-3
8.595000E-8	5.332414E-3
8.600000E-8	5.226211E-3
8.605000E-8	5.150841E-3
8.610000E-8	5.126860E-3
8.615000E-8	5.159406E-3
8.620000E-8	5.236488E-3
8.625000E-8	5.339265E-3
8.630000E-8	5.472875E-3
8.635000E-8	5.635606E-3
8.640000E-8	5.812040E-3
8.645000E-8	5.985047E-3
8.650000E-8	6.139213E-3
8.655000E-8	6.269397E-3
8.660000E-8	6.368748E-3
8.665000E-8	6.433840E-3
8.670000E-8	6.452683E-3
8.675000E-8	6.432127E-3
8.680000E-8	6.389304E-3
8.685000E-8	6.358471E-3
8.690000E-8	6.320786E-3
8.695000E-8	6.265971E-3
8.700000E-8	6.238564E-3
8.705000E-8	6.247129E-3
8.710000E-8	6.241990E-3
8.715000E-8	6.233425E-3
8.720000E-8	6.259119E-3
8.725000E-8	6.291666E-3
8.730000E-8	6.312221E-3
8.735000E-8	6.343054E-3
8.740000E-8	6.389304E-3
8.745000E-8	6.430414E-3
8.750000E-8	6.454396E-3
8.755000E-8	6.450970E-3
8.760000E-8	6.438979E-3
8.765000E-8	6.432127E-3
8.770000E-8	6.413285E-3
8.775000E-8	6.372174E-3
8.780000E-8	6.320786E-3
8.785000E-8	6.265971E-3
8.790000E-8	6.199166E-3
8.795000E-8	6.111806E-3
8.800000E-8	6.010742E-3
8.805000E-8	5.911391E-3
8.810000E-8	5.810327E-3
8.815000E-8	5.710975E-3
8.820000E-8	5.618476E-3
8.825000E-8	5.544819E-3
8.830000E-8	5.483153E-3
8.835000E-8	5.414635E-3
8.840000E-8	5.354682E-3
8.845000E-8	5.334126E-3
8.850000E-8	5.325562E-3
8.855000E-8	5.315284E-3
8.860000E-8	5.332414E-3
8.865000E-8	5.383802E-3
8.870000E-8	5.423200E-3
8.875000E-8	5.445468E-3
8.880000E-8	5.457459E-3
8.885000E-8	5.464311E-3
8.890000E-8	5.474588E-3
8.895000E-8	5.496857E-3
8.900000E-8	5.500283E-3
8.905000E-8	5.493431E-3
8.910000E-8	5.495144E-3
8.915000E-8	5.500283E-3
8.920000E-8	5.501996E-3
8.925000E-8	5.498570E-3
8.930000E-8	5.491718E-3
8.935000E-8	5.491718E-3
8.940000E-8	5.508847E-3
8.945000E-8	5.539680E-3
8.950000E-8	5.579078E-3
8.955000E-8	5.635606E-3
8.960000E-8	5.709263E-3
8.965000E-8	5.794910E-3
8.970000E-8	5.899400E-3
8.975000E-8	6.014168E-3
8.980000E-8	6.128935E-3
8.985000E-8	6.240277E-3
8.990000E-8	6.336202E-3
8.995000E-8	6.382452E-3
9.000000E-8	6.380739E-3
9.005000E-8	6.334489E-3
9.010000E-8	6.231712E-3
9.015000E-8	6.075834E-3
9.020000E-8	5.890835E-3
9.025000E-8	5.698985E-3
9.030000E-8	5.505421E-3
9.035000E-8	5.325562E-3
9.040000E-8	5.167970E-3
9.045000E-8	5.044638E-3
9.050000E-8	4.957277E-3
9.055000E-8	4.900750E-3
9.060000E-8	4.869917E-3
9.065000E-8	4.873343E-3
9.070000E-8	4.904176E-3
9.075000E-8	4.941861E-3
9.080000E-8	4.969268E-3
9.085000E-8	4.986398E-3
9.090000E-8	4.988111E-3
9.095000E-8	4.965842E-3
9.100000E-8	4.919593E-3
9.105000E-8	4.861352E-3
9.110000E-8	4.803112E-3
9.115000E-8	4.748298E-3
9.120000E-8	4.695196E-3
9.125000E-8	4.645521E-3
9.130000E-8	4.602697E-3
9.135000E-8	4.561586E-3
9.140000E-8	4.510197E-3
9.145000E-8	4.467374E-3
9.150000E-8	4.433115E-3
9.155000E-8	4.397143E-3
9.160000E-8	4.364597E-3
9.165000E-8	4.344041E-3
9.170000E-8	4.337190E-3
9.175000E-8	4.352606E-3
9.180000E-8	4.400569E-3
9.185000E-8	4.484503E-3
9.190000E-8	4.612974E-3
9.195000E-8	4.791121E-3
9.200000E-8	4.996675E-3
9.205000E-8	5.215933E-3
9.210000E-8	5.452320E-3
9.215000E-8	5.680142E-3
9.220000E-8	5.871993E-3
9.225000E-8	6.027871E-3
9.230000E-8	6.134074E-3
9.235000E-8	6.176898E-3
9.240000E-8	6.171759E-3
9.245000E-8	6.132361E-3
9.250000E-8	6.045001E-3
9.255000E-8	5.935372E-3
9.260000E-8	5.844586E-3
9.265000E-8	5.769216E-3
9.270000E-8	5.695559E-3
9.275000E-8	5.656161E-3
9.280000E-8	5.645883E-3
9.285000E-8	5.633893E-3
9.290000E-8	5.640745E-3
9.295000E-8	5.669865E-3
9.300000E-8	5.678429E-3
9.305000E-8	5.669865E-3
9.310000E-8	5.669865E-3
9.315000E-8	5.640745E-3
9.320000E-8	5.560236E-3
9.325000E-8	5.471162E-3
9.330000E-8	5.382089E-3
9.335000E-8	5.275886E-3
9.340000E-8	5.176535E-3
9.345000E-8	5.106304E-3
9.350000E-8	5.036073E-3
9.355000E-8	4.962416E-3
9.360000E-8	4.923018E-3
9.365000E-8	4.907602E-3
9.370000E-8	4.888759E-3
9.375000E-8	4.875056E-3
9.380000E-8	4.881908E-3
9.385000E-8	4.895611E-3
9.390000E-8	4.902463E-3
9.395000E-8	4.899037E-3
9.400000E-8	4.883621E-3
9.405000E-8	4.847649E-3
9.410000E-8	4.785982E-3
9.415000E-8	4.714039E-3
9.420000E-8	4.674641E-3
9.425000E-8	4.657511E-3
9.430000E-8	4.645521E-3
9.435000E-8	4.664363E-3
9.440000E-8	4.731168E-3
9.445000E-8	4.820241E-3
9.450000E-8	4.926444E-3
9.455000E-8	5.056629E-3
9.460000E-8	5.190239E-3
9.465000E-8	5.303293E-3
9.470000E-8	5.400932E-3
9.475000E-8	5.469450E-3
9.480000E-8	5.490005E-3
9.485000E-8	5.476301E-3
9.490000E-8	5.440329E-3
9.495000E-8	5.380376E-3
9.500000E-8	5.310145E-3
9.505000E-8	5.255331E-3
9.510000E-8	5.226211E-3
9.515000E-8	5.227924E-3
9.520000E-8	5.253618E-3
9.525000E-8	5.293016E-3
9.530000E-8	5.344404E-3
9.535000E-8	5.399219E-3
9.540000E-8	5.426626E-3
9.545000E-8	5.424913E-3
9.550000E-8	5.407783E-3
9.555000E-8	5.364960E-3
9.560000E-8	5.306719E-3
9.565000E-8	5.248479E-3
9.570000E-8	5.155980E-3
9.575000E-8	5.027508E-3
9.580000E-8	4.907602E-3
9.585000E-8	4.813390E-3
9.590000E-8	4.732881E-3
9.595000E-8	4.660937E-3
9.600000E-8	4.592419E-3
9.605000E-8	4.532466E-3
9.610000E-8	4.503346E-3
9.615000E-8	4.493068E-3
9.620000E-8	4.494781E-3
9.625000E-8	4.529040E-3
9.630000E-8	4.580428E-3
9.635000E-8	4.638669E-3
9.640000E-8	4.708900E-3
9.645000E-8	4.782557E-3
9.650000E-8	4.845936E-3
9.655000E-8	4.904176E-3
9.660000E-8	4.943574E-3
9.665000E-8	4.957277E-3
9.670000E-8	4.960703E-3
9.675000E-8	4.962416E-3
9.680000E-8	4.958990E-3
9.685000E-8	4.967555E-3
9.690000E-8	4.988111E-3
9.695000E-8	5.008666E-3
9.700000E-8	5.048064E-3
9.705000E-8	5.120008E-3
9.710000E-8	5.209081E-3
9.715000E-8	5.301580E-3
9.720000E-8	5.406070E-3
9.725000E-8	5.500283E-3
9.730000E-8	5.577365E-3
9.735000E-8	5.632180E-3
9.740000E-8	5.645883E-3
9.745000E-8	5.604773E-3
9.750000E-8	5.532829E-3
9.755000E-8	5.440329E-3
9.760000E-8	5.332414E-3
9.765000E-8	5.226211E-3
9.770000E-8	5.128572E-3
9.775000E-8	5.048064E-3
9.780000E-8	5.006953E-3
9.785000E-8	4.989824E-3
9.790000E-8	4.982972E-3
9.795000E-8	5.012092E-3
9.800000E-8	5.070332E-3
9.805000E-8	5.109730E-3
9.810000E-8	5.126860E-3
9.815000E-8	5.128572E-3
9.820000E-8	5.104591E-3
9.825000E-8	5.049777E-3
9.830000E-8	4.960703E-3
9.835000E-8	4.845936E-3
9.840000E-8	4.731168E-3
9.845000E-8	4.624965E-3
9.850000E-8	4.511910E-3
9.855000E-8	4.405708E-3
9.860000E-8	4.309782E-3
9.865000E-8	4.224135E-3
9.870000E-8	4.169320E-3
9.875000E-8	4.136774E-3
9.880000E-8	4.112793E-3
9.885000E-8	4.100802E-3
9.890000E-8	4.099089E-3
9.895000E-8	4.099089E-3
9.900000E-8	4.105941E-3
9.905000E-8	4.114506E-3
9.910000E-8	4.116219E-3
9.915000E-8	4.126497E-3
9.920000E-8	4.152191E-3
9.925000E-8	4.172746E-3
9.930000E-8	4.189876E-3
9.935000E-8	4.215570E-3
9.940000E-8	4.248116E-3
9.945000E-8	4.278949E-3
9.950000E-8	4.328625E-3
9.955000E-8	4.410846E-3
9.960000E-8	4.498207E-3
9.965000E-8	4.588993E-3
9.970000E-8	4.707187E-3
9.975000E-8	4.842510E-3
9.980000E-8	4.952139E-3
9.985000E-8	5.049777E-3
9.990000E-8	5.126860E-3
9.995000E-8	5.169683E-3
1.000000E-7	5.190239E-3
1.000500E-7	5.188526E-3
1.001000E-7	5.147415E-3
1.001500E-7	5.078897E-3
1.002000E-7	4.996675E-3
1.002500E-7	4.895611E-3
1.003000E-7	4.785982E-3
1.003500E-7	4.681492E-3
1.004000E-7	4.578715E-3
1.004500E-7	4.494781E-3
1.005000E-7	4.445105E-3
1.005500E-7	4.417698E-3
1.006000E-7	4.398856E-3
1.006500E-7	4.380013E-3
1.007000E-7	4.357745E-3
1.007500E-7	4.342328E-3
1.008000E-7	4.335477E-3
1.008500E-7	4.330338E-3
1.009000E-7	4.323486E-3
1.009500E-7	4.316634E-3
1.010000E-7	4.321773E-3
1.010500E-7	4.326912E-3
1.011000E-7	4.318347E-3
1.011500E-7	4.306356E-3
1.012000E-7	4.304643E-3
1.012500E-7	4.308069E-3
1.013000E-7	4.311495E-3
1.013500E-7	4.316634E-3
1.014000E-7	4.325199E-3
1.014500E-7	4.332051E-3
1.015000E-7	4.335477E-3
1.015500E-7	4.323486E-3
1.016000E-7	4.302931E-3
1.016500E-7	4.289227E-3
1.017000E-7	4.292653E-3
1.017500E-7	4.302931E-3
1.018000E-7	4.316634E-3
1.018500E-7	4.335477E-3
1.019000E-7	4.354319E-3
1.019500E-7	4.374874E-3
1.020000E-7	4.403995E-3
1.020500E-7	4.434828E-3
1.021000E-7	4.463948E-3
1.021500E-7	4.489642E-3
1.022000E-7	4.501633E-3
1.022500E-7	4.491355E-3
1.023000E-7	4.451957E-3
1.023500E-7	4.393717E-3
1.024000E-7	4.340615E-3
1.024500E-7	4.311495E-3
1.025000E-7	4.289227E-3
1.025500E-7	4.270384E-3
1.026000E-7	4.263533E-3
1.026500E-7	4.260107E-3
1.027000E-7	4.256681E-3
1.027500E-7	4.270384E-3
1.028000E-7	4.320060E-3
1.028500E-7	4.383439E-3
1.029000E-7	4.429689E-3
1.029500E-7	4.441679E-3
1.030000E-7	4.431402E-3
1.030500E-7	4.414272E-3
1.031000E-7	4.371449E-3
1.031500E-7	4.296079E-3
1.032000E-7	4.212144E-3
1.032500E-7	4.126497E-3
1.033000E-7	4.025433E-3
1.033500E-7	3.920943E-3
1.034000E-7	3.837008E-3
1.034500E-7	3.778768E-3
1.035000E-7	3.759925E-3
1.035500E-7	3.758212E-3
1.036000E-7	3.758212E-3
1.036500E-7	3.773629E-3
1.037000E-7	3.807888E-3
1.037500E-7	3.828443E-3
1.038000E-7	3.842147E-3
1.038500E-7	3.876406E-3
1.039000E-7	3.920943E-3
1.039500E-7	3.936359E-3
1.040000E-7	3.920943E-3
1.040500E-7	3.907239E-3
1.041000E-7	3.915804E-3
1.041500E-7	3.932933E-3
1.042000E-7	3.950063E-3
1.042500E-7	3.963766E-3
1.043000E-7	3.984322E-3
1.043500E-7	4.020294E-3
1.044000E-7	4.049414E-3
1.044500E-7	4.068256E-3
1.045000E-7	4.099089E-3
1.045500E-7	4.141913E-3
1.046000E-7	4.181311E-3
1.046500E-7	4.229274E-3
1.047000E-7	4.290940E-3
1.047500E-7	4.357745E-3
1.048000E-7	4.419411E-3
1.048500E-7	4.465661E-3
1.049000E-7	4.503346E-3
1.049500E-7	4.539318E-3
1.050000E-7	4.558160E-3
1.050500E-7	4.541031E-3
1.051000E-7	4.475938E-3
1.051500E-7	4.368023E-3
1.052000E-7	4.239551E-3
1.052500E-7	4.100802E-3
1.053000E-7	3.956915E-3
1.053500E-7	3.830156E-3
1.054000E-7	3.723953E-3
1.054500E-7	3.653722E-3
1.055000E-7	3.638306E-3
1.055500E-7	3.687981E-3
1.056000E-7	3.778768E-3
1.056500E-7	3.898674E-3
1.057000E-7	4.035710E-3
1.057500E-7	4.177885E-3
1.058000E-7	4.294366E-3
1.058500E-7	4.373161E-3
1.059000E-7	4.409133E-3
1.059500E-7	4.386865E-3
1.060000E-7	4.296079E-3
1.060500E-7	4.172746E-3
1.061000E-7	4.020294E-3
1.061500E-7	3.831869E-3
1.062000E-7	3.638306E-3
1.062500E-7	3.475576E-3
1.063000E-7	3.347104E-3
1.063500E-7	3.266596E-3
1.064000E-7	3.244327E-3
1.064500E-7	3.270022E-3
1.065000E-7	3.347104E-3
1.065500E-7	3.461872E-3
1.066000E-7	3.595482E-3
1.066500E-7	3.756499E-3
1.067000E-7	3.927794E-3
1.067500E-7	4.066543E-3
1.068000E-7	4.181311E-3
1.068500E-7	4.280662E-3
1.069000E-7	4.344041E-3
1.069500E-7	4.352606E-3
1.070000E-7	4.340615E-3
1.070500E-7	4.325199E-3
1.071000E-7	4.280662E-3
1.071500E-7	4.205292E-3
1.072000E-7	4.116219E-3
1.072500E-7	4.025433E-3
1.073000E-7	3.939785E-3
1.073500E-7	3.872980E-3
1.074000E-7	3.819879E-3
1.074500E-7	3.768490E-3
1.075000E-7	3.751361E-3
1.075500E-7	3.773629E-3
1.076000E-7	3.813027E-3
1.076500E-7	3.850712E-3
1.077000E-7	3.891823E-3
1.077500E-7	3.939785E-3
1.078000E-7	3.998025E-3
1.078500E-7	4.066543E-3
1.079000E-7	4.121358E-3
1.079500E-7	4.140200E-3
1.080000E-7	4.128210E-3
1.080500E-7	4.114506E-3
1.081000E-7	4.081960E-3
1.081500E-7	4.022007E-3
1.082000E-7	3.956915E-3
1.082500E-7	3.893535E-3
1.083000E-7	3.811314E-3
1.083500E-7	3.735944E-3
1.084000E-7	3.672565E-3
1.084500E-7	3.598908E-3
1.085000E-7	3.535529E-3
1.085500E-7	3.502983E-3
1.086000E-7	3.489279E-3
1.086500E-7	3.480715E-3
1.087000E-7	3.480715E-3
1.087500E-7	3.480715E-3
1.088000E-7	3.475576E-3
1.088500E-7	3.458446E-3
1.089000E-7	3.431039E-3
1.089500E-7	3.396780E-3
1.090000E-7	3.359095E-3
1.090500E-7	3.331688E-3
1.091000E-7	3.311132E-3
1.091500E-7	3.295716E-3
1.092000E-7	3.297429E-3
1.092500E-7	3.311132E-3
1.093000E-7	3.336827E-3
1.093500E-7	3.384789E-3
1.094000E-7	3.443030E-3
1.094500E-7	3.506409E-3
1.095000E-7	3.571501E-3
1.095500E-7	3.622889E-3
1.096000E-7	3.648584E-3
1.096500E-7	3.658861E-3
1.097000E-7	3.662287E-3
1.097500E-7	3.633167E-3
1.098000E-7	3.564649E-3
1.098500E-7	3.487566E-3
1.099000E-7	3.434465E-3
1.099500E-7	3.400206E-3
1.100000E-7	3.364234E-3
1.100500E-7	3.338540E-3
1.101000E-7	3.343679E-3
1.101500E-7	3.369373E-3
1.102000E-7	3.412197E-3
1.102500E-7	3.480715E-3
1.103000E-7	3.559510E-3
1.103500E-7	3.641732E-3
1.104000E-7	3.732518E-3
1.104500E-7	3.814740E-3
1.105000E-7	3.866128E-3
1.105500E-7	3.898674E-3
1.106000E-7	3.919230E-3
1.106500E-7	3.929507E-3
1.107000E-7	3.929507E-3
1.107500E-7	3.915804E-3
1.108000E-7	3.890110E-3
1.108500E-7	3.860989E-3
1.109000E-7	3.843860E-3
1.109500E-7	3.843860E-3
1.110000E-7	3.854138E-3
1.110500E-7	3.866128E-3
1.111000E-7	3.876406E-3
1.111500E-7	3.884971E-3
1.112000E-7	3.878119E-3
1.112500E-7	3.840434E-3
1.113000E-7	3.783907E-3
1.113500E-7	3.715389E-3
1.114000E-7	3.622889E-3
1.114500E-7	3.514974E-3
1.115000E-7	3.431039E-3
1.115500E-7	3.362521E-3
1.116000E-7	3.292290E-3
1.116500E-7	3.246040E-3
1.117000E-7	3.242614E-3
1.117500E-7	3.259744E-3
1.118000E-7	3.297429E-3
1.118500E-7	3.360808E-3
1.119000E-7	3.432752E-3
1.119500E-7	3.511548E-3
1.120000E-7	3.604047E-3
1.120500E-7	3.696546E-3
1.121000E-7	3.765064E-3
1.121500E-7	3.813027E-3
1.122000E-7	3.847286E-3
1.122500E-7	3.862702E-3
1.123000E-7	3.869554E-3
1.123500E-7	3.871267E-3
1.124000E-7	3.860989E-3
1.124500E-7	3.828443E-3
1.125000E-7	3.790758E-3
1.125500E-7	3.773629E-3
1.126000E-7	3.771916E-3
1.126500E-7	3.768490E-3
1.127000E-7	3.775342E-3
1.127500E-7	3.787333E-3
1.128000E-7	3.790758E-3
1.128500E-7	3.811314E-3
1.129000E-7	3.862702E-3
1.129500E-7	3.910665E-3
1.130000E-7	3.939785E-3
1.130500E-7	3.967192E-3
1.131000E-7	3.991174E-3
1.131500E-7	3.998025E-3
1.132000E-7	3.986035E-3
1.132500E-7	3.929507E-3
1.133000E-7	3.828443E-3
1.133500E-7	3.711963E-3
1.134000E-7	3.602334E-3
1.134500E-7	3.485853E-3
1.135000E-7	3.353956E-3
1.135500E-7	3.234050E-3
1.136000E-7	3.136412E-3
1.136500E-7	3.066181E-3
1.137000E-7	3.018218E-3
1.137500E-7	2.989098E-3
1.138000E-7	2.982246E-3
1.138500E-7	3.021644E-3
1.139000E-7	3.081597E-3
1.139500E-7	3.144976E-3
1.140000E-7	3.220346E-3
1.140500E-7	3.295716E-3
1.141000E-7	3.343679E-3
1.141500E-7	3.359095E-3
1.142000E-7	3.360808E-3
1.142500E-7	3.352243E-3
1.143000E-7	3.323123E-3
1.143500E-7	3.275160E-3
1.144000E-7	3.218633E-3
1.144500E-7	3.177522E-3
1.145000E-7	3.144976E-3
1.145500E-7	3.119282E-3
1.146000E-7	3.115856E-3
1.146500E-7	3.155254E-3
1.147000E-7	3.213494E-3
1.147500E-7	3.275160E-3
1.148000E-7	3.369373E-3
1.148500E-7	3.497844E-3
1.149000E-7	3.610899E-3
1.149500E-7	3.701685E-3
1.150000E-7	3.790758E-3
1.150500E-7	3.864415E-3
1.151000E-7	3.908952E-3
1.151500E-7	3.948350E-3
1.152000E-7	3.972331E-3
1.152500E-7	3.960341E-3
1.153000E-7	3.948350E-3
1.153500E-7	3.939785E-3
1.154000E-7	3.907239E-3
1.154500E-7	3.866128E-3
1.155000E-7	3.831869E-3
1.155500E-7	3.782194E-3
1.156000E-7	3.725666E-3
1.156500E-7	3.699972E-3
1.157000E-7	3.694833E-3
1.157500E-7	3.708537E-3
1.158000E-7	3.753074E-3
1.158500E-7	3.813027E-3
1.159000E-7	3.872980E-3
1.159500E-7	3.948350E-3
1.160000E-7	4.027146E-3
1.160500E-7	4.071682E-3
1.161000E-7	4.083673E-3
1.161500E-7	4.081960E-3
1.162000E-7	4.052840E-3
1.162500E-7	3.975757E-3
1.163000E-7	3.862702E-3
1.163500E-7	3.739370E-3
1.164000E-7	3.610899E-3
1.164500E-7	3.475576E-3
1.165000E-7	3.347104E-3
1.165500E-7	3.242614E-3
1.166000E-7	3.165532E-3
1.166500E-7	3.112430E-3
1.167000E-7	3.073032E-3
1.167500E-7	3.052477E-3
1.168000E-7	3.045625E-3
1.168500E-7	3.043912E-3
1.169000E-7	3.042199E-3
1.169500E-7	3.033635E-3
1.170000E-7	3.018218E-3
1.170500E-7	3.009653E-3
1.171000E-7	3.011366E-3
1.171500E-7	3.004514E-3
1.172000E-7	3.002801E-3
1.172500E-7	3.037060E-3
1.173000E-7	3.088449E-3
1.173500E-7	3.143263E-3
1.174000E-7	3.206642E-3
1.174500E-7	3.285438E-3
1.175000E-7	3.369373E-3
1.175500E-7	3.436178E-3
1.176000E-7	3.487566E-3
1.176500E-7	3.535529E-3
1.177000E-7	3.554371E-3
1.177500E-7	3.532103E-3
1.178000E-7	3.499557E-3
1.178500E-7	3.472150E-3
1.179000E-7	3.432752E-3
1.179500E-7	3.407058E-3
1.180000E-7	3.388215E-3
1.180500E-7	3.360808E-3
1.181000E-7	3.345391E-3
1.181500E-7	3.348817E-3
1.182000E-7	3.360808E-3
1.182500E-7	3.391641E-3
1.183000E-7	3.434465E-3
1.183500E-7	3.475576E-3
1.184000E-7	3.523538E-3
1.184500E-7	3.578353E-3
1.185000E-7	3.628028E-3
1.185500E-7	3.665713E-3
1.186000E-7	3.694833E-3
1.186500E-7	3.730805E-3
1.187000E-7	3.753074E-3
1.187500E-7	3.737657E-3
1.188000E-7	3.720528E-3
1.188500E-7	3.722240E-3
1.189000E-7	3.701685E-3
1.189500E-7	3.646871E-3
1.190000E-7	3.595482E-3
1.190500E-7	3.544094E-3
1.191000E-7	3.499557E-3
1.191500E-7	3.479002E-3
1.192000E-7	3.458446E-3
1.192500E-7	3.443030E-3
1.193000E-7	3.453307E-3
1.193500E-7	3.468724E-3
1.194000E-7	3.477289E-3
1.194500E-7	3.499557E-3
1.195000E-7	3.516686E-3
1.195500E-7	3.501270E-3
1.196000E-7	3.467011E-3
1.196500E-7	3.446456E-3
1.197000E-7	3.427613E-3
1.197500E-7	3.377938E-3
1.198000E-7	3.326549E-3
1.198500E-7	3.299142E-3
1.199000E-7	3.256318E-3
1.199500E-7	3.196365E-3
1.200000E-7	3.155254E-3
1.200500E-7	3.136412E-3
1.201000E-7	3.117569E-3
1.201500E-7	3.122708E-3
1.202000E-7	3.170671E-3
1.202500E-7	3.239189E-3
1.203000E-7	3.328262E-3
1.203500E-7	3.429326E-3
1.204000E-7	3.528677E-3
1.204500E-7	3.629741E-3
1.205000E-7	3.734231E-3
1.205500E-7	3.821592E-3
1.206000E-7	3.883258E-3
1.206500E-7	3.920943E-3
1.207000E-7	3.927794E-3
1.207500E-7	3.896961E-3
1.208000E-7	3.845573E-3
1.208500E-7	3.794184E-3
1.209000E-7	3.734231E-3
1.209500E-7	3.650297E-3
1.210000E-7	3.562936E-3
1.210500E-7	3.499557E-3
1.211000E-7	3.455020E-3
1.211500E-7	3.420761E-3
1.212000E-7	3.401919E-3
1.212500E-7	3.388215E-3
1.213000E-7	3.371086E-3
1.213500E-7	3.357382E-3
1.214000E-7	3.364234E-3
1.214500E-7	3.376225E-3
1.215000E-7	3.381363E-3
1.215500E-7	3.391641E-3
1.216000E-7	3.424187E-3
1.216500E-7	3.460159E-3
1.217000E-7	3.484140E-3
1.217500E-7	3.513261E-3
1.218000E-7	3.535529E-3
1.218500E-7	3.532103E-3
1.219000E-7	3.504696E-3
1.219500E-7	3.463585E-3
1.220000E-7	3.393354E-3
1.220500E-7	3.311132E-3
1.221000E-7	3.234050E-3
1.221500E-7	3.141550E-3
1.222000E-7	3.023357E-3
1.222500E-7	2.913728E-3
1.223000E-7	2.828081E-3
1.223500E-7	2.740720E-3
1.224000E-7	2.679054E-3
1.224500E-7	2.679054E-3
1.225000E-7	2.706461E-3
1.225500E-7	2.735581E-3
1.226000E-7	2.797247E-3
1.226500E-7	2.894886E-3
1.227000E-7	2.990811E-3
1.227500E-7	3.088449E-3
1.228000E-7	3.194652E-3
1.228500E-7	3.299142E-3
1.229000E-7	3.395067E-3
1.229500E-7	3.472150E-3
1.230000E-7	3.501270E-3
1.230500E-7	3.499557E-3
1.231000E-7	3.475576E-3
1.231500E-7	3.417335E-3
1.232000E-7	3.343679E-3
1.232500E-7	3.295716E-3
1.233000E-7	3.264883E-3
1.233500E-7	3.234050E-3
1.234000E-7	3.216920E-3
1.234500E-7	3.225485E-3
1.235000E-7	3.246040E-3
1.235500E-7	3.282012E-3
1.236000E-7	3.329975E-3
1.236500E-7	3.386502E-3
1.237000E-7	3.439604E-3
1.237500E-7	3.465298E-3
1.238000E-7	3.449881E-3
1.238500E-7	3.424187E-3
1.239000E-7	3.393354E-3
1.239500E-7	3.341966E-3
1.240000E-7	3.287151E-3
1.240500E-7	3.256318E-3
1.241000E-7	3.235763E-3
1.241500E-7	3.227198E-3
1.242000E-7	3.234050E-3
1.242500E-7	3.228911E-3
1.243000E-7	3.199791E-3
1.243500E-7	3.165532E-3
1.244000E-7	3.122708E-3
1.244500E-7	3.074745E-3
1.245000E-7	3.028496E-3
1.245500E-7	2.971968E-3
1.246000E-7	2.908589E-3
1.246500E-7	2.882895E-3
1.247000E-7	2.879469E-3
1.247500E-7	2.877756E-3
1.248000E-7	2.901737E-3
1.248500E-7	2.978820E-3
1.249000E-7	3.085023E-3
1.249500E-7	3.204930E-3
1.250000E-7	3.335114E-3
1.250500E-7	3.448168E-3
1.251000E-7	3.523538E-3
1.251500E-7	3.550945E-3
1.252000E-7	3.530390E-3
1.252500E-7	3.477289E-3
1.253000E-7	3.407058E-3
1.253500E-7	3.312845E-3
1.254000E-7	3.189513E-3
1.254500E-7	3.064468E-3
1.255000E-7	2.956552E-3
1.255500E-7	2.879469E-3
1.256000E-7	2.850349E-3
1.256500E-7	2.860627E-3
1.257000E-7	2.901737E-3
1.257500E-7	2.992524E-3
1.258000E-7	3.122708E-3
1.258500E-7	3.258031E-3
1.259000E-7	3.389928E-3
1.259500E-7	3.494418E-3
1.260000E-7	3.549233E-3
1.260500E-7	3.578353E-3
1.261000E-7	3.581779E-3
1.261500E-7	3.532103E-3
1.262000E-7	3.439604E-3
1.262500E-7	3.328262E-3
1.263000E-7	3.189513E-3
1.263500E-7	3.042199E-3
1.264000E-7	2.924006E-3
1.264500E-7	2.822942E-3
1.265000E-7	2.744146E-3
1.265500E-7	2.730442E-3
1.266000E-7	2.786970E-3
1.266500E-7	2.865765E-3
1.267000E-7	2.966829E-3
1.267500E-7	3.091875E-3
1.268000E-7	3.213494E-3
1.268500E-7	3.324836E-3
1.269000E-7	3.427613E-3
1.269500E-7	3.504696E-3
1.270000E-7	3.535529E-3
1.270500E-7	3.528677E-3
1.271000E-7	3.480715E-3
1.271500E-7	3.400206E-3
1.272000E-7	3.305994E-3
1.272500E-7	3.203217E-3
1.273000E-7	3.088449E-3
1.273500E-7	2.989098E-3
1.274000E-7	2.915441E-3
1.274500E-7	2.870904E-3
1.275000E-7	2.855488E-3
1.275500E-7	2.858914E-3
1.276000E-7	2.884608E-3
1.276500E-7	2.932570E-3
1.277000E-7	2.982246E-3
1.277500E-7	3.033635E-3
1.278000E-7	3.097014E-3
1.278500E-7	3.144976E-3
1.279000E-7	3.148402E-3
1.279500E-7	3.120995E-3
1.280000E-7	3.083310E-3
1.280500E-7	3.021644E-3
1.281000E-7	2.937709E-3
1.281500E-7	2.857201E-3
1.282000E-7	2.786970E-3
1.282500E-7	2.725304E-3
1.283000E-7	2.682480E-3
1.283500E-7	2.643082E-3
1.284000E-7	2.610536E-3
1.284500E-7	2.593406E-3
1.285000E-7	2.589980E-3
1.285500E-7	2.607110E-3
1.286000E-7	2.663637E-3
1.286500E-7	2.737294E-3
1.287000E-7	2.800673E-3
1.287500E-7	2.862340E-3
1.288000E-7	2.927432E-3
1.288500E-7	2.989098E-3
1.289000E-7	3.040486E-3
1.289500E-7	3.069606E-3
1.290000E-7	3.079884E-3
1.290500E-7	3.095301E-3
1.291000E-7	3.122708E-3
1.291500E-7	3.132986E-3
1.292000E-7	3.132986E-3
1.292500E-7	3.134699E-3
1.293000E-7	3.141550E-3
1.293500E-7	3.134699E-3
1.294000E-7	3.110717E-3
1.294500E-7	3.083310E-3
1.295000E-7	3.062755E-3
1.295500E-7	3.052477E-3
1.296000E-7	3.033635E-3
1.296500E-7	3.018218E-3
1.297000E-7	3.007940E-3
1.297500E-7	3.009653E-3
1.298000E-7	3.030209E-3
1.298500E-7	3.066181E-3
1.299000E-7	3.102153E-3
1.299500E-7	3.126134E-3
1.300000E-7	3.132986E-3
1.300500E-7	3.127847E-3
1.301000E-7	3.095301E-3
1.301500E-7	3.038773E-3
1.302000E-7	2.971968E-3
1.302500E-7	2.905163E-3
1.303000E-7	2.826368E-3
1.303500E-7	2.747572E-3
1.304000E-7	2.689332E-3
1.304500E-7	2.644795E-3
1.305000E-7	2.610536E-3
1.305500E-7	2.610536E-3
1.306000E-7	2.625952E-3
1.306500E-7	2.632804E-3
1.307000E-7	2.644795E-3
1.307500E-7	2.655073E-3
1.308000E-7	2.651647E-3
1.308500E-7	2.649934E-3
1.309000E-7	2.663637E-3
1.309500E-7	2.673915E-3
1.310000E-7	2.684193E-3
1.310500E-7	2.709887E-3
1.311000E-7	2.744146E-3
1.311500E-7	2.783544E-3
1.312000E-7	2.816090E-3
1.312500E-7	2.826368E-3
1.313000E-7	2.812664E-3
1.313500E-7	2.783544E-3
1.314000E-7	2.737294E-3
1.314500E-7	2.673915E-3
1.315000E-7	2.598545E-3
1.315500E-7	2.528314E-3
1.316000E-7	2.449519E-3
1.316500E-7	2.360445E-3
1.317000E-7	2.285075E-3
1.317500E-7	2.237113E-3
1.318000E-7	2.204567E-3
1.318500E-7	2.182298E-3
1.319000E-7	2.177160E-3
1.319500E-7	2.202854E-3
1.320000E-7	2.226835E-3
1.320500E-7	2.225122E-3
1.321000E-7	2.219983E-3
1.321500E-7	2.225122E-3
1.322000E-7	2.223409E-3
1.322500E-7	2.221696E-3
1.323000E-7	2.243965E-3
1.323500E-7	2.279937E-3
1.324000E-7	2.322760E-3
1.324500E-7	2.374149E-3
1.325000E-7	2.432389E-3
1.325500E-7	2.494055E-3
1.326000E-7	2.564286E-3
1.326500E-7	2.634517E-3
1.327000E-7	2.701322E-3
1.327500E-7	2.752711E-3
1.328000E-7	2.785257E-3
1.328500E-7	2.800673E-3
1.329000E-7	2.807525E-3
1.329500E-7	2.817803E-3
1.330000E-7	2.831506E-3
1.330500E-7	2.855488E-3
1.331000E-7	2.879469E-3
1.331500E-7	2.906876E-3
1.332000E-7	2.958265E-3
1.332500E-7	3.037060E-3
1.333000E-7	3.088449E-3
1.333500E-7	3.097014E-3
1.334000E-7	3.102153E-3
1.334500E-7	3.107291E-3
1.335000E-7	3.081597E-3
1.335500E-7	3.031922E-3
1.336000E-7	2.971968E-3
1.336500E-7	2.898311E-3
1.337000E-7	2.814377E-3
1.337500E-7	2.742433E-3
1.338000E-7	2.680767E-3
1.338500E-7	2.637943E-3
1.339000E-7	2.617388E-3
1.339500E-7	2.622527E-3
1.340000E-7	2.655073E-3
1.340500E-7	2.701322E-3
1.341000E-7	2.759563E-3
1.341500E-7	2.819516E-3
1.342000E-7	2.858914E-3
1.342500E-7	2.879469E-3
1.343000E-7	2.894886E-3
1.343500E-7	2.886321E-3
1.344000E-7	2.838358E-3
1.344500E-7	2.773266E-3
1.345000E-7	2.709887E-3
1.345500E-7	2.643082E-3
1.346000E-7	2.571138E-3
1.346500E-7	2.519750E-3
1.347000E-7	2.499194E-3
1.347500E-7	2.504333E-3
1.348000E-7	2.535166E-3
1.348500E-7	2.586555E-3
1.349000E-7	2.649934E-3
1.349500E-7	2.716739E-3
1.350000E-7	2.771553E-3
1.350500E-7	2.793822E-3
1.351000E-7	2.802386E-3
1.351500E-7	2.807525E-3
1.352000E-7	2.790396E-3
1.352500E-7	2.744146E-3
1.353000E-7	2.677341E-3
1.353500E-7	2.596832E-3
1.354000E-7	2.500907E-3
1.354500E-7	2.401556E-3
1.355000E-7	2.333038E-3
1.355500E-7	2.303918E-3
1.356000E-7	2.298779E-3
1.356500E-7	2.331325E-3
1.357000E-7	2.411834E-3
1.357500E-7	2.494055E-3
1.358000E-7	2.557434E-3
1.358500E-7	2.632804E-3
1.359000E-7	2.709887E-3
1.359500E-7	2.762988E-3
1.360000E-7	2.812664E-3
1.360500E-7	2.853775E-3
1.361000E-7	2.850349E-3
1.361500E-7	2.810951E-3
1.362000E-7	2.764701E-3
1.362500E-7	2.696183E-3
1.363000E-7	2.613962E-3
1.363500E-7	2.550583E-3
1.364000E-7	2.494055E-3
1.364500E-7	2.439241E-3
1.365000E-7	2.403269E-3
1.365500E-7	2.387852E-3
1.366000E-7	2.369010E-3
1.366500E-7	2.358732E-3
1.367000E-7	2.365584E-3
1.367500E-7	2.360445E-3
1.368000E-7	2.350167E-3
1.368500E-7	2.363871E-3
1.369000E-7	2.386139E-3
1.369500E-7	2.387852E-3
1.370000E-7	2.389565E-3
1.370500E-7	2.406695E-3
1.371000E-7	2.435815E-3
1.371500E-7	2.461509E-3
1.372000E-7	2.480352E-3
1.372500E-7	2.507759E-3
1.373000E-7	2.547157E-3
1.373500E-7	2.588268E-3
1.374000E-7	2.620814E-3
1.374500E-7	2.644795E-3
1.375000E-7	2.660211E-3
1.375500E-7	2.661924E-3
1.376000E-7	2.646508E-3
1.376500E-7	2.620814E-3
1.377000E-7	2.595119E-3
1.377500E-7	2.564286E-3
1.378000E-7	2.495768E-3
1.378500E-7	2.399843E-3
1.379000E-7	2.315908E-3
1.379500E-7	2.231974E-3
1.380000E-7	2.137762E-3
1.380500E-7	2.058966E-3
1.381000E-7	1.992161E-3
1.381500E-7	1.925356E-3
1.382000E-7	1.887671E-3
1.382500E-7	1.882532E-3
1.383000E-7	1.875680E-3
1.383500E-7	1.870541E-3
1.384000E-7	1.885958E-3
1.384500E-7	1.918504E-3
1.385000E-7	1.971606E-3
1.385500E-7	2.036698E-3
1.386000E-7	2.091512E-3
1.386500E-7	2.124058E-3
1.387000E-7	2.158317E-3
1.387500E-7	2.196002E-3
1.388000E-7	2.228548E-3
1.388500E-7	2.259381E-3
1.389000E-7	2.291927E-3
1.389500E-7	2.305631E-3
1.390000E-7	2.309057E-3
1.390500E-7	2.322760E-3
1.391000E-7	2.326186E-3
1.391500E-7	2.303918E-3
1.392000E-7	2.291927E-3
1.392500E-7	2.281649E-3
1.393000E-7	2.238826E-3
1.393500E-7	2.184011E-3
1.394000E-7	2.127484E-3
1.394500E-7	2.055540E-3
1.395000E-7	1.971606E-3
1.395500E-7	1.875680E-3
1.396000E-7	1.766052E-3
1.396500E-7	1.673552E-3
1.397000E-7	1.606747E-3
1.397500E-7	1.550220E-3
1.398000E-7	1.507396E-3
1.398500E-7	1.490267E-3
1.399000E-7	1.507396E-3
1.399500E-7	1.562210E-3
1.400000E-7	1.652997E-3
1.400500E-7	1.796885E-3
1.401000E-7	1.983596E-3
1.401500E-7	2.168595E-3
1.402000E-7	2.331325E-3
1.402500E-7	2.485491E-3
1.403000E-7	2.603684E-3
1.403500E-7	2.665350E-3
1.404000E-7	2.673915E-3
1.404500E-7	2.646508E-3
1.405000E-7	2.593406E-3
1.405500E-7	2.528314E-3
1.406000E-7	2.440954E-3
1.406500E-7	2.336464E-3
1.407000E-7	2.231974E-3
1.407500E-7	2.137762E-3
1.408000E-7	2.077808E-3
1.408500E-7	2.057253E-3
1.409000E-7	2.060679E-3
1.409500E-7	2.098364E-3
1.410000E-7	2.166882E-3
1.410500E-7	2.235400E-3
1.411000E-7	2.290214E-3
1.411500E-7	2.317621E-3
1.412000E-7	2.310770E-3
1.412500E-7	2.279937E-3
1.413000E-7	2.231974E-3
1.413500E-7	2.161743E-3
1.414000E-7	2.067531E-3
1.414500E-7	1.961328E-3
1.415000E-7	1.843134E-3
1.415500E-7	1.736931E-3
1.416000E-7	1.671839E-3
1.416500E-7	1.647858E-3
1.417000E-7	1.670126E-3
1.417500E-7	1.736931E-3
1.418000E-7	1.824292E-3
1.418500E-7	1.921930E-3
1.419000E-7	2.028133E-3
1.419500E-7	2.120632E-3
1.420000E-7	2.192576E-3
1.420500E-7	2.243965E-3
1.421000E-7	2.262807E-3
1.421500E-7	2.238826E-3
1.422000E-7	2.190863E-3
1.422500E-7	2.124058E-3
1.423000E-7	2.028133E-3
1.423500E-7	1.923643E-3
1.424000E-7	1.843134E-3
1.424500E-7	1.769477E-3
1.425000E-7	1.700959E-3
1.425500E-7	1.661562E-3
1.426000E-7	1.659849E-3
1.426500E-7	1.678691E-3
1.427000E-7	1.716376E-3
1.427500E-7	1.769477E-3
1.428000E-7	1.812301E-3
1.428500E-7	1.839708E-3
1.429000E-7	1.873967E-3
1.429500E-7	1.916791E-3
1.430000E-7	1.961328E-3
1.430500E-7	2.005865E-3
1.431000E-7	2.043549E-3
1.431500E-7	2.088086E-3
1.432000E-7	2.132623E-3
1.432500E-7	2.165169E-3
1.433000E-7	2.192576E-3
1.433500E-7	2.221696E-3
1.434000E-7	2.235400E-3
1.434500E-7	2.230261E-3
1.435000E-7	2.213131E-3
1.435500E-7	2.182298E-3
1.436000E-7	2.129197E-3
1.436500E-7	2.064105E-3
1.437000E-7	2.014429E-3
1.437500E-7	1.971606E-3
1.438000E-7	1.916791E-3
1.438500E-7	1.867116E-3
1.439000E-7	1.843134E-3
1.439500E-7	1.843134E-3
1.440000E-7	1.860264E-3
1.440500E-7	1.884245E-3
1.441000E-7	1.915078E-3
1.441500E-7	1.969893E-3
1.442000E-7	2.033272E-3
1.442500E-7	2.096651E-3
1.443000E-7	2.168595E-3
1.443500E-7	2.223409E-3
1.444000E-7	2.245678E-3
1.444500E-7	2.283362E-3
1.445000E-7	2.329612E-3
1.445500E-7	2.345029E-3
1.446000E-7	2.339890E-3
1.446500E-7	2.326186E-3
1.447000E-7	2.285075E-3
1.447500E-7	2.204567E-3
1.448000E-7	2.084660E-3
1.448500E-7	1.928782E-3
1.449000E-7	1.759200E-3
1.449500E-7	1.593044E-3
1.450000E-7	1.428600E-3
1.450500E-7	1.281287E-3
1.451000E-7	1.168232E-3
1.451500E-7	1.087723E-3
1.452000E-7	1.050038E-3
1.452500E-7	1.058603E-3
1.453000E-7	1.092862E-3
1.453500E-7	1.164806E-3
1.454000E-7	1.301842E-3
1.454500E-7	1.469711E-3
1.455000E-7	1.630728E-3
1.455500E-7	1.795172E-3
1.456000E-7	1.971606E-3
1.456500E-7	2.132623E-3
1.457000E-7	2.255955E-3
1.457500E-7	2.331325E-3
1.458000E-7	2.391278E-3
1.458500E-7	2.447806E-3
1.459000E-7	2.458083E-3
1.459500E-7	2.408408E-3
1.460000E-7	2.326186E-3
1.460500E-7	2.221696E-3
1.461000E-7	2.088086E-3
1.461500E-7	1.968180E-3
1.462000E-7	1.889384E-3
1.462500E-7	1.827718E-3
1.463000E-7	1.802023E-3
1.463500E-7	1.817440E-3
1.464000E-7	1.851699E-3
1.464500E-7	1.892810E-3
1.465000E-7	1.944198E-3
1.465500E-7	1.978457E-3
1.466000E-7	1.999013E-3
1.466500E-7	2.029846E-3
1.467000E-7	2.045262E-3
1.467500E-7	2.021281E-3
1.468000E-7	1.985309E-3
1.468500E-7	1.944198E-3
1.469000E-7	1.877393E-3
1.469500E-7	1.822579E-3
1.470000E-7	1.803736E-3
1.470500E-7	1.790033E-3
1.471000E-7	1.784894E-3
1.471500E-7	1.800311E-3
1.472000E-7	1.820866E-3
1.472500E-7	1.837995E-3
1.473000E-7	1.844847E-3
1.473500E-7	1.824292E-3
1.474000E-7	1.788320E-3
1.474500E-7	1.766052E-3
1.475000E-7	1.752348E-3
1.475500E-7	1.731793E-3
1.476000E-7	1.709524E-3
1.476500E-7	1.704385E-3
1.477000E-7	1.716376E-3
1.477500E-7	1.735218E-3
1.478000E-7	1.766052E-3
1.478500E-7	1.826005E-3
1.479000E-7	1.901375E-3
1.479500E-7	1.971606E-3
1.480000E-7	2.031559E-3
1.480500E-7	2.077808E-3
1.481000E-7	2.081234E-3
1.481500E-7	2.045262E-3
1.482000E-7	1.992161E-3
1.482500E-7	1.927069E-3
1.483000E-7	1.846560E-3
1.483500E-7	1.760913E-3
1.484000E-7	1.673552E-3
1.484500E-7	1.584479E-3
1.485000E-7	1.498831E-3
1.485500E-7	1.437165E-3
1.486000E-7	1.411471E-3
1.486500E-7	1.416610E-3
1.487000E-7	1.437165E-3
1.487500E-7	1.471424E-3
1.488000E-7	1.509109E-3
1.488500E-7	1.529664E-3
1.489000E-7	1.519387E-3
1.489500E-7	1.486841E-3
1.490000E-7	1.449156E-3
1.490500E-7	1.409758E-3
1.491000E-7	1.356656E-3
1.491500E-7	1.300129E-3
1.492000E-7	1.267583E-3
1.492500E-7	1.245315E-3
1.493000E-7	1.212769E-3
1.493500E-7	1.187074E-3
1.494000E-7	1.183648E-3
1.494500E-7	1.199065E-3
1.495000E-7	1.235037E-3
1.495500E-7	1.272722E-3
1.496000E-7	1.301842E-3
1.496500E-7	1.322397E-3
1.497000E-7	1.341240E-3
1.497500E-7	1.334388E-3
1.498000E-7	1.325823E-3
1.498500E-7	1.336101E-3
1.499000E-7	1.360082E-3
1.499500E-7	1.392628E-3
1.500000E-7	1.438878E-3
1.500500E-7	1.498831E-3
1.501000E-7	1.555359E-3
1.501500E-7	1.591331E-3
1.502000E-7	1.608460E-3
1.502500E-7	1.627303E-3
1.503000E-7	1.641006E-3
1.503500E-7	1.637580E-3
1.504000E-7	1.617025E-3
1.504500E-7	1.586192E-3
1.505000E-7	1.529664E-3
1.505500E-7	1.450869E-3
1.506000E-7	1.373786E-3
1.506500E-7	1.312120E-3
1.507000E-7	1.279574E-3
1.507500E-7	1.267583E-3
1.508000E-7	1.279574E-3
1.508500E-7	1.318972E-3
1.509000E-7	1.356656E-3
1.509500E-7	1.373786E-3
1.510000E-7	1.389202E-3
1.510500E-7	1.404619E-3
1.511000E-7	1.411471E-3
1.511500E-7	1.414897E-3
1.512000E-7	1.414897E-3
1.512500E-7	1.404619E-3
1.513000E-7	1.380638E-3
1.513500E-7	1.353231E-3
1.514000E-7	1.325823E-3
1.514500E-7	1.301842E-3
1.515000E-7	1.294990E-3
1.515500E-7	1.306981E-3
1.516000E-7	1.341240E-3
1.516500E-7	1.411471E-3
1.517000E-7	1.493692E-3
1.517500E-7	1.565636E-3
1.518000E-7	1.627303E-3
1.518500E-7	1.671839E-3
1.519000E-7	1.700959E-3
1.519500E-7	1.726654E-3
1.520000E-7	1.759200E-3
1.520500E-7	1.767764E-3
1.521000E-7	1.752348E-3
1.521500E-7	1.711237E-3
1.522000E-7	1.634154E-3
1.522500E-7	1.533090E-3
1.523000E-7	1.414897E-3
1.523500E-7	1.306981E-3
1.524000E-7	1.226472E-3
1.524500E-7	1.190500E-3
1.525000E-7	1.166519E-3
1.525500E-7	1.156241E-3
1.526000E-7	1.199065E-3
1.526500E-7	1.308694E-3
1.527000E-7	1.444017E-3
1.527500E-7	1.603321E-3
1.528000E-7	1.796885E-3
1.528500E-7	1.990448E-3
1.529000E-7	2.172021E-3
1.529500E-7	2.338177E-3
1.530000E-7	2.456370E-3
1.530500E-7	2.514611E-3
1.531000E-7	2.528314E-3
1.531500E-7	2.500907E-3
1.532000E-7	2.430676E-3
1.532500E-7	2.333038E-3
1.533000E-7	2.204567E-3
1.533500E-7	2.038411E-3
1.534000E-7	1.863690E-3
1.534500E-7	1.688969E-3
1.535000E-7	1.526238E-3
1.535500E-7	1.411471E-3
1.536000E-7	1.356656E-3
1.536500E-7	1.334388E-3
1.537000E-7	1.330962E-3
1.537500E-7	1.373786E-3
1.538000E-7	1.454295E-3
1.538500E-7	1.533090E-3
1.539000E-7	1.605034E-3
1.539500E-7	1.678691E-3
1.540000E-7	1.724941E-3
1.540500E-7	1.726654E-3
1.541000E-7	1.694108E-3
1.541500E-7	1.625590E-3
1.542000E-7	1.526238E-3
1.542500E-7	1.401193E-3
1.543000E-7	1.257305E-3
1.543500E-7	1.121982E-3
1.544000E-7	1.019205E-3
1.544500E-7	9.541132E-4
1.545000E-7	9.267060E-4
1.545500E-7	9.301319E-4
1.546000E-7	9.643909E-4
1.546500E-7	1.050038E-3
1.547000E-7	1.164806E-3
1.547500E-7	1.276148E-3
1.548000E-7	1.389202E-3
1.548500E-7	1.507396E-3
1.549000E-7	1.610173E-3
1.549500E-7	1.702672E-3
1.550000E-7	1.766052E-3
1.550500E-7	1.783181E-3
1.551000E-7	1.762626E-3
1.551500E-7	1.704385E-3
1.552000E-7	1.611886E-3
1.552500E-7	1.509109E-3
1.553000E-7	1.399480E-3
1.553500E-7	1.289851E-3
1.554000E-7	1.178510E-3
1.554500E-7	1.068881E-3
1.555000E-7	9.866592E-4
1.555500E-7	9.318448E-4
1.556000E-7	8.975858E-4
1.556500E-7	9.164283E-4
1.557000E-7	9.866592E-4
1.557500E-7	1.065455E-3
1.558000E-7	1.163093E-3
1.558500E-7	1.298416E-3
1.559000E-7	1.445730E-3
1.559500E-7	1.579340E-3
1.560000E-7	1.706098E-3
1.560500E-7	1.822579E-3
1.561000E-7	1.909939E-3
1.561500E-7	1.964754E-3
1.562000E-7	1.981883E-3
1.562500E-7	1.963041E-3
1.563000E-7	1.897949E-3
1.563500E-7	1.810588E-3
1.564000E-7	1.712950E-3
1.564500E-7	1.611886E-3
1.565000E-7	1.531377E-3
1.565500E-7	1.483415E-3
1.566000E-7	1.445730E-3
1.566500E-7	1.430313E-3
1.567000E-7	1.459433E-3
1.567500E-7	1.498831E-3
1.568000E-7	1.531377E-3
1.568500E-7	1.589618E-3
1.569000E-7	1.687256E-3
1.569500E-7	1.784894E-3
1.570000E-7	1.863690E-3
1.570500E-7	1.927069E-3
1.571000E-7	1.975031E-3
1.571500E-7	1.990448E-3
1.572000E-7	1.981883E-3
1.572500E-7	1.937347E-3
1.573000E-7	1.865403E-3
1.573500E-7	1.791746E-3
1.574000E-7	1.716376E-3
1.574500E-7	1.630728E-3
1.575000E-7	1.546794E-3
1.575500E-7	1.469711E-3
1.576000E-7	1.396054E-3
1.576500E-7	1.337814E-3
1.577000E-7	1.293277E-3
1.577500E-7	1.252166E-3
1.578000E-7	1.211056E-3
1.578500E-7	1.154528E-3
1.579000E-7	1.084297E-3
1.579500E-7	1.029483E-3
1.580000E-7	9.900851E-4
1.580500E-7	9.626779E-4
1.581000E-7	9.506873E-4
1.581500E-7	9.541132E-4
1.582000E-7	9.763815E-4
1.582500E-7	1.034622E-3
1.583000E-7	1.115130E-3
1.583500E-7	1.211056E-3
1.584000E-7	1.332675E-3
1.584500E-7	1.479989E-3
1.585000E-7	1.630728E-3
1.585500E-7	1.779755E-3
1.586000E-7	1.930495E-3
1.586500E-7	2.048688E-3
1.587000E-7	2.113780E-3
1.587500E-7	2.141188E-3
1.588000E-7	2.132623E-3
1.588500E-7	2.082947E-3
1.589000E-7	2.011003E-3
1.589500E-7	1.940772E-3
1.590000E-7	1.856838E-3
1.590500E-7	1.752348E-3
1.591000E-7	1.651284E-3
1.591500E-7	1.557072E-3
1.592000E-7	1.462859E-3
1.592500E-7	1.394341E-3
1.593000E-7	1.353231E-3
1.593500E-7	1.310407E-3
1.594000E-7	1.291564E-3
1.594500E-7	1.305268E-3
1.595000E-7	1.310407E-3
1.595500E-7	1.303555E-3
1.596000E-7	1.310407E-3
1.596500E-7	1.322397E-3
1.597000E-7	1.334388E-3
1.597500E-7	1.339527E-3
1.598000E-7	1.339527E-3
1.598500E-7	1.348092E-3
1.599000E-7	1.358369E-3
1.599500E-7	1.358369E-3
1.600000E-7	1.363508E-3
1.600500E-7	1.387490E-3
1.601000E-7	1.404619E-3
1.601500E-7	1.414897E-3
1.602000E-7	1.437165E-3
1.602500E-7	1.467998E-3
1.603000E-7	1.493692E-3
1.603500E-7	1.503970E-3
1.604000E-7	1.498831E-3
1.604500E-7	1.486841E-3
1.605000E-7	1.478276E-3
1.605500E-7	1.473137E-3
1.606000E-7	1.456008E-3
1.606500E-7	1.425174E-3
1.607000E-7	1.396054E-3
1.607500E-7	1.356656E-3
1.608000E-7	1.306981E-3
1.608500E-7	1.264157E-3
1.609000E-7	1.219620E-3
1.609500E-7	1.168232E-3
1.610000E-7	1.123695E-3
1.610500E-7	1.096288E-3
1.611000E-7	1.077446E-3
1.611500E-7	1.070594E-3
1.612000E-7	1.074020E-3
1.612500E-7	1.079159E-3
1.613000E-7	1.091149E-3
1.613500E-7	1.115130E-3
1.614000E-7	1.142538E-3
1.614500E-7	1.181936E-3
1.615000E-7	1.231611E-3
1.615500E-7	1.271009E-3
1.616000E-7	1.291564E-3
1.616500E-7	1.293277E-3
1.617000E-7	1.289851E-3
1.617500E-7	1.296703E-3
1.618000E-7	1.318972E-3
1.618500E-7	1.342953E-3
1.619000E-7	1.356656E-3
1.619500E-7	1.373786E-3
1.620000E-7	1.397767E-3
1.620500E-7	1.414897E-3
1.621000E-7	1.404619E-3
1.621500E-7	1.397767E-3
1.622000E-7	1.394341E-3
1.622500E-7	1.363508E-3
1.623000E-7	1.305268E-3
1.623500E-7	1.235037E-3
1.624000E-7	1.135686E-3
1.624500E-7	1.022631E-3
1.625000E-7	9.249930E-4
1.625500E-7	8.376326E-4
1.626000E-7	7.605498E-4
1.626500E-7	7.143002E-4
1.627000E-7	7.023095E-4
1.627500E-7	7.074484E-4
1.628000E-7	7.245779E-4
1.628500E-7	7.605498E-4
1.629000E-7	8.085124E-4
1.629500E-7	8.650398E-4
1.630000E-7	9.198542E-4
1.630500E-7	9.643909E-4
1.631000E-7	1.014066E-3
1.631500E-7	1.074020E-3
1.632000E-7	1.108279E-3
1.632500E-7	1.094575E-3
1.633000E-7	1.091149E-3
1.633500E-7	1.103140E-3
1.634000E-7	1.104853E-3
1.634500E-7	1.108279E-3
1.635000E-7	1.132260E-3
1.635500E-7	1.144251E-3
1.636000E-7	1.161380E-3
1.636500E-7	1.193926E-3
1.637000E-7	1.216195E-3
1.637500E-7	1.219620E-3
1.638000E-7	1.240176E-3
1.638500E-7	1.265870E-3
1.639000E-7	1.276148E-3
1.639500E-7	1.294990E-3
1.640000E-7	1.306981E-3
1.640500E-7	1.286425E-3
1.641000E-7	1.236750E-3
1.641500E-7	1.183648E-3
1.642000E-7	1.120269E-3
1.642500E-7	1.056890E-3
1.643000E-7	1.010641E-3
1.643500E-7	9.969369E-4
1.644000E-7	9.986499E-4
1.644500E-7	1.000363E-3
1.645000E-7	1.000363E-3
1.645500E-7	1.017492E-3
1.646000E-7	1.063742E-3
1.646500E-7	1.113418E-3
1.647000E-7	1.156241E-3
1.647500E-7	1.192213E-3
1.648000E-7	1.205917E-3
1.648500E-7	1.188787E-3
1.649000E-7	1.151102E-3
1.649500E-7	1.098001E-3
1.650000E-7	1.017492E-3
1.650500E-7	9.352707E-4
1.651000E-7	8.821693E-4
1.651500E-7	8.444844E-4
1.652000E-7	8.239290E-4
1.652500E-7	8.444844E-4
1.653000E-7	9.027247E-4
1.653500E-7	9.832333E-4
1.654000E-7	1.084297E-3
1.654500E-7	1.199065E-3
1.655000E-7	1.313833E-3
1.655500E-7	1.404619E-3
1.656000E-7	1.444017E-3
1.656500E-7	1.423461E-3
1.657000E-7	1.344666E-3
1.657500E-7	1.199065E-3
1.658000E-7	1.005502E-3
1.658500E-7	7.948088E-4
1.659000E-7	5.978196E-4
1.659500E-7	4.350893E-4
1.660000E-7	3.254605E-4
1.660500E-7	2.655073E-4
1.661000E-7	2.655073E-4
1.661500E-7	3.477289E-4
1.662000E-7	5.053203E-4
1.662500E-7	6.988836E-4
1.663000E-7	9.181412E-4
1.663500E-7	1.144251E-3
1.664000E-7	1.341240E-3
1.664500E-7	1.485128E-3
1.665000E-7	1.560497E-3
1.665500E-7	1.545081E-3
1.666000E-7	1.452582E-3
1.666500E-7	1.324110E-3
1.667000E-7	1.164806E-3
1.667500E-7	9.815204E-4
1.668000E-7	8.153642E-4
1.668500E-7	6.903189E-4
1.669000E-7	5.995325E-4
1.669500E-7	5.464311E-4
1.670000E-7	5.447181E-4
1.670500E-7	5.995325E-4
1.671000E-7	6.988836E-4
1.671500E-7	8.290678E-4
1.672000E-7	9.695297E-4
1.672500E-7	1.089436E-3
1.673000E-7	1.180223E-3
1.673500E-7	1.241889E-3
1.674000E-7	1.247028E-3
1.674500E-7	1.205917E-3
1.675000E-7	1.152815E-3
1.675500E-7	1.086010E-3
1.676000E-7	9.986499E-4
1.676500E-7	9.267060E-4
1.677000E-7	8.804563E-4
1.677500E-7	8.359196E-4
1.678000E-7	7.999477E-4
1.678500E-7	7.845311E-4
1.679000E-7	7.828182E-4
1.679500E-7	7.999477E-4
1.680000E-7	8.273549E-4
1.680500E-7	8.616139E-4
1.681000E-7	9.010117E-4
1.681500E-7	9.369837E-4
1.682000E-7	9.883722E-4
1.682500E-7	1.055177E-3
1.683000E-7	1.113418E-3
1.683500E-7	1.166519E-3
1.684000E-7	1.247028E-3
1.684500E-7	1.327536E-3
1.685000E-7	1.378925E-3
1.685500E-7	1.418323E-3
1.686000E-7	1.459433E-3
1.686500E-7	1.462859E-3
1.687000E-7	1.413184E-3
1.687500E-7	1.353231E-3
1.688000E-7	1.293277E-3
1.688500E-7	1.209343E-3
1.689000E-7	1.109992E-3
1.689500E-7	1.012353E-3
1.690000E-7	9.215671E-4
1.690500E-7	8.616139E-4
1.691000E-7	8.513362E-4
1.691500E-7	8.701786E-4
1.692000E-7	9.164283E-4
1.692500E-7	1.007215E-3
1.693000E-7	1.111705E-3
1.693500E-7	1.228185E-3
1.694000E-7	1.360082E-3
1.694500E-7	1.497118E-3
1.695000E-7	1.615312E-3
1.695500E-7	1.711237E-3
1.696000E-7	1.784894E-3
1.696500E-7	1.826005E-3
1.697000E-7	1.807162E-3
1.697500E-7	1.724941E-3
1.698000E-7	1.601608E-3
1.698500E-7	1.457720E-3
1.699000E-7	1.296703E-3
1.699500E-7	1.159667E-3
1.700000E-7	1.065455E-3
1.700500E-7	1.002076E-3
1.701000E-7	9.626779E-4
1.701500E-7	9.541132E-4
1.702000E-7	9.746686E-4
1.702500E-7	1.015779E-3
1.703000E-7	1.072307E-3
1.703500E-7	1.130547E-3
1.704000E-7	1.178510E-3
1.704500E-7	1.217907E-3
1.705000E-7	1.235037E-3
1.705500E-7	1.226472E-3
1.706000E-7	1.200778E-3
1.706500E-7	1.166519E-3
1.707000E-7	1.132260E-3
1.707500E-7	1.098001E-3
1.708000E-7	1.074020E-3
1.708500E-7	1.065455E-3
1.709000E-7	1.074020E-3
1.709500E-7	1.079159E-3
1.710000E-7	1.075733E-3
1.710500E-7	1.068881E-3
1.711000E-7	1.050038E-3
1.711500E-7	1.019205E-3
1.712000E-7	9.969369E-4
1.712500E-7	9.729556E-4
1.713000E-7	9.301319E-4
1.713500E-7	8.821693E-4
1.714000E-7	8.427714E-4
1.714500E-7	8.153642E-4
1.715000E-7	8.136513E-4
1.715500E-7	8.479103E-4
1.716000E-7	9.044376E-4
1.716500E-7	9.695297E-4
1.717000E-7	1.044900E-3
1.717500E-7	1.109992E-3
1.718000E-7	1.142538E-3
1.718500E-7	1.144251E-3
1.719000E-7	1.128834E-3
1.719500E-7	1.087723E-3
1.720000E-7	1.019205E-3
1.720500E-7	9.369837E-4
1.721000E-7	8.547621E-4
1.721500E-7	7.896700E-4
1.722000E-7	7.451333E-4
1.722500E-7	7.040225E-4
1.723000E-7	6.714764E-4
1.723500E-7	6.766153E-4
1.724000E-7	7.228649E-4
1.724500E-7	7.930959E-4
1.725000E-7	8.958729E-4
1.725500E-7	1.026057E-3
1.726000E-7	1.168232E-3
1.726500E-7	1.288138E-3
1.727000E-7	1.378925E-3
1.727500E-7	1.447443E-3
1.728000E-7	1.495405E-3
1.728500E-7	1.521100E-3
1.729000E-7	1.514248E-3
1.729500E-7	1.467998E-3
1.730000E-7	1.394341E-3
1.730500E-7	1.313833E-3
1.731000E-7	1.212769E-3
1.731500E-7	1.087723E-3
1.732000E-7	9.421225E-4
1.732500E-7	7.999477E-4
1.733000E-7	6.851800E-4
1.733500E-7	6.012455E-4
1.734000E-7	5.361534E-4
1.734500E-7	5.053203E-4
1.735000E-7	5.173109E-4
1.735500E-7	5.669865E-4
1.736000E-7	6.492081E-4
1.736500E-7	7.554110E-4
1.737000E-7	8.650398E-4
1.737500E-7	9.729556E-4
1.738000E-7	1.065455E-3
1.738500E-7	1.121982E-3
1.739000E-7	1.149389E-3
1.739500E-7	1.164806E-3
1.740000E-7	1.161380E-3
1.740500E-7	1.118556E-3
1.741000E-7	1.058603E-3
1.741500E-7	1.002076E-3
1.742000E-7	9.438355E-4
1.742500E-7	8.701786E-4
1.743000E-7	7.948088E-4
1.743500E-7	7.451333E-4
1.744000E-7	7.399944E-4
1.744500E-7	7.571239E-4
1.745000E-7	7.879570E-4
1.745500E-7	8.359196E-4
1.746000E-7	8.838822E-4
1.746500E-7	9.164283E-4
1.747000E-7	9.404096E-4
1.747500E-7	9.506873E-4
1.748000E-7	9.335578E-4
1.748500E-7	8.821693E-4
1.749000E-7	8.033736E-4
1.749500E-7	7.177261E-4
1.750000E-7	6.200879E-4
1.750500E-7	5.138850E-4
1.751000E-7	4.162469E-4
1.751500E-7	3.323123E-4
1.752000E-7	2.655073E-4
1.752500E-7	2.363871E-4
1.753000E-7	2.381001E-4
1.753500E-7	2.586555E-4
1.754000E-7	3.117569E-4
1.754500E-7	3.974044E-4
1.755000E-7	4.710613E-4
1.755500E-7	5.293016E-4
1.756000E-7	5.789771E-4
1.756500E-7	6.115232E-4
1.757000E-7	6.355045E-4
1.757500E-7	6.646246E-4
1.758000E-7	6.920318E-4
1.758500E-7	7.108743E-4
1.759000E-7	7.262908E-4
1.759500E-7	7.468462E-4
1.760000E-7	7.708275E-4
1.760500E-7	8.085124E-4
1.761000E-7	8.667527E-4
1.761500E-7	9.198542E-4
1.762000E-7	9.643909E-4
1.762500E-7	1.007215E-3
1.763000E-7	1.034622E-3
1.763500E-7	1.029483E-3
1.764000E-7	1.015779E-3
1.764500E-7	1.008928E-3
1.765000E-7	9.917981E-4
1.765500E-7	9.592520E-4
1.766000E-7	9.147153E-4
1.766500E-7	8.599009E-4
1.767000E-7	8.136513E-4
1.767500E-7	7.708275E-4
1.768000E-7	7.228649E-4
1.768500E-7	6.868930E-4
1.769000E-7	6.714764E-4
1.769500E-7	6.749023E-4
1.770000E-7	6.971707E-4
1.770500E-7	7.280038E-4
1.771000E-7	7.519851E-4
1.771500E-7	7.776793E-4
1.772000E-7	8.153642E-4
1.772500E-7	8.530491E-4
1.773000E-7	8.838822E-4
1.773500E-7	9.147153E-4
1.774000E-7	9.386966E-4
1.774500E-7	9.455484E-4
1.775000E-7	9.472614E-4
1.775500E-7	9.386966E-4
1.776000E-7	9.044376E-4
1.776500E-7	8.633268E-4
1.777000E-7	8.376326E-4
1.777500E-7	8.102254E-4
1.778000E-7	7.828182E-4
1.778500E-7	7.656887E-4
1.779000E-7	7.588369E-4
1.779500E-7	7.382815E-4
1.780000E-7	7.160131E-4
1.780500E-7	7.040225E-4
1.781000E-7	7.005966E-4
1.781500E-7	6.903189E-4
1.782000E-7	6.817541E-4
1.782500E-7	6.886059E-4
1.783000E-7	6.868930E-4
1.783500E-7	6.526340E-4
1.784000E-7	6.029584E-4
1.784500E-7	5.395793E-4
1.785000E-7	4.659224E-4
1.785500E-7	4.059692E-4
1.786000E-7	3.751361E-4
1.786500E-7	3.511548E-4
1.787000E-7	3.203217E-4
1.787500E-7	3.117569E-4
1.788000E-7	3.254605E-4
1.788500E-7	3.340253E-4
1.789000E-7	3.357382E-4
1.789500E-7	3.580066E-4
1.790000E-7	3.888397E-4
1.790500E-7	4.145339E-4
1.791000E-7	4.487929E-4
1.791500E-7	4.916167E-4
1.792000E-7	5.190239E-4
1.792500E-7	5.447181E-4
1.793000E-7	5.858289E-4
1.793500E-7	6.389304E-4
1.794000E-7	6.868930E-4
1.794500E-7	7.348556E-4
1.795000E-7	7.811052E-4
1.795500E-7	8.187901E-4
1.796000E-7	8.496232E-4
1.796500E-7	8.787434E-4
1.797000E-7	8.804563E-4
1.797500E-7	8.461973E-4
1.798000E-7	8.170772E-4
1.798500E-7	8.119383E-4
1.799000E-7	8.170772E-4
1.799500E-7	8.102254E-4
1.800000E-7	7.948088E-4
1.800500E-7	7.896700E-4
1.801000E-7	8.085124E-4
1.801500E-7	8.444844E-4
1.802000E-7	8.787434E-4
1.802500E-7	9.147153E-4
1.803000E-7	9.558261E-4
1.803500E-7	1.002076E-3
1.804000E-7	1.055177E-3
1.804500E-7	1.094575E-3
1.805000E-7	1.118556E-3
1.805500E-7	1.145964E-3
1.806000E-7	1.168232E-3
1.806500E-7	1.175084E-3
1.807000E-7	1.156241E-3
1.807500E-7	1.115130E-3
1.808000E-7	1.056890E-3
1.808500E-7	9.849463E-4
1.809000E-7	8.924470E-4
1.809500E-7	7.879570E-4
1.810000E-7	6.903189E-4
1.810500E-7	6.320786E-4
1.811000E-7	6.046714E-4
1.811500E-7	5.789771E-4
1.812000E-7	5.618476E-4
1.812500E-7	5.875419E-4
1.813000E-7	6.457822E-4
1.813500E-7	7.160131E-4
1.814000E-7	7.965218E-4
1.814500E-7	8.718916E-4
1.815000E-7	9.386966E-4
1.815500E-7	1.000363E-3
1.816000E-7	1.046612E-3
1.816500E-7	1.072307E-3
1.817000E-7	1.084297E-3
1.817500E-7	1.087723E-3
1.818000E-7	1.060316E-3
1.818500E-7	1.008928E-3
1.819000E-7	9.626779E-4
1.819500E-7	9.130024E-4
1.820000E-7	8.496232E-4
1.820500E-7	7.862441E-4
1.821000E-7	7.331426E-4
1.821500E-7	6.783282E-4
1.822000E-7	6.183750E-4
1.822500E-7	5.601347E-4
1.823000E-7	5.036073E-4
1.823500E-7	4.539318E-4
1.824000E-7	4.230987E-4
1.824500E-7	3.974044E-4
1.825000E-7	3.819879E-4
1.825500E-7	3.871267E-4
1.826000E-7	3.956915E-4
1.826500E-7	4.008303E-4
1.827000E-7	4.076821E-4
1.827500E-7	3.956915E-4
1.828000E-7	3.631454E-4
1.828500E-7	3.374512E-4
1.829000E-7	3.031922E-4
1.829500E-7	2.552296E-4
1.830000E-7	2.312483E-4
1.830500E-7	2.398130E-4
1.831000E-7	2.518037E-4
1.831500E-7	2.723591E-4
1.832000E-7	3.151828E-4
1.832500E-7	3.631454E-4
1.833000E-7	4.076821E-4
1.833500E-7	4.624965E-4
1.834000E-7	5.190239E-4
1.834500E-7	5.721253E-4
1.835000E-7	6.320786E-4
1.835500E-7	6.783282E-4
1.836000E-7	6.988836E-4
1.836500E-7	7.245779E-4
1.837000E-7	7.622628E-4
1.837500E-7	7.811052E-4
1.838000E-7	7.982347E-4
1.838500E-7	8.342067E-4
1.839000E-7	8.633268E-4
1.839500E-7	8.701786E-4
1.840000E-7	8.890211E-4
1.840500E-7	9.095765E-4
1.841000E-7	9.095765E-4
1.841500E-7	8.992988E-4
1.842000E-7	8.941599E-4
1.842500E-7	8.890211E-4
1.843000E-7	8.684657E-4
1.843500E-7	8.410585E-4
1.844000E-7	8.342067E-4
1.844500E-7	8.410585E-4
1.845000E-7	8.393455E-4
1.845500E-7	8.461973E-4
1.846000E-7	8.718916E-4
1.846500E-7	8.855952E-4
1.847000E-7	8.787434E-4
1.847500E-7	8.701786E-4
1.848000E-7	8.479103E-4
1.848500E-7	8.033736E-4
1.849000E-7	7.468462E-4
1.849500E-7	6.817541E-4
1.850000E-7	6.166620E-4
1.850500E-7	5.635606E-4
1.851000E-7	5.412922E-4
1.851500E-7	5.515699E-4
1.852000E-7	5.755512E-4
1.852500E-7	6.200879E-4
1.853000E-7	6.851800E-4
1.853500E-7	7.468462E-4
1.854000E-7	8.136513E-4
1.854500E-7	8.958729E-4
1.855000E-7	9.558261E-4
1.855500E-7	9.678168E-4
1.856000E-7	9.421225E-4
1.856500E-7	8.958729E-4
1.857000E-7	8.222160E-4
1.857500E-7	7.091613E-4
1.858000E-7	5.704124E-4
1.858500E-7	4.419411E-4
1.859000E-7	3.408771E-4
1.859500E-7	2.637943E-4
1.860000E-7	2.295353E-4
1.860500E-7	2.398130E-4
1.861000E-7	2.586555E-4
1.861500E-7	3.014792E-4
1.862000E-7	3.819879E-4
1.862500E-7	4.590706E-4
1.863000E-7	5.190239E-4
1.863500E-7	5.858289E-4
1.864000E-7	6.406433E-4
1.864500E-7	6.594858E-4
1.865000E-7	6.611987E-4
1.865500E-7	6.594858E-4
1.866000E-7	6.406433E-4
1.866500E-7	6.063843E-4
1.867000E-7	5.652735E-4
1.867500E-7	5.224498E-4
1.868000E-7	4.864778E-4
1.868500E-7	4.693483E-4
1.869000E-7	4.590706E-4
1.869500E-7	4.436541E-4
1.870000E-7	4.333764E-4
1.870500E-7	4.162469E-4
1.871000E-7	3.905526E-4
1.871500E-7	3.751361E-4
1.872000E-7	3.631454E-4
1.872500E-7	3.460159E-4
1.873000E-7	3.374512E-4
1.873500E-7	3.425900E-4
1.874000E-7	3.425900E-4
1.874500E-7	3.340253E-4
1.875000E-7	3.477289E-4
1.875500E-7	3.768490E-4
1.876000E-7	4.008303E-4
1.876500E-7	4.316634E-4
1.877000E-7	4.676354E-4
1.877500E-7	4.899037E-4
1.878000E-7	5.018944E-4
1.878500E-7	5.241627E-4
1.879000E-7	5.430052E-4
1.879500E-7	5.447181E-4
1.880000E-7	5.567088E-4
1.880500E-7	5.824030E-4
1.881000E-7	5.961066E-4
1.881500E-7	5.909678E-4
1.882000E-7	5.772642E-4
1.882500E-7	5.618476E-4
1.883000E-7	5.344404E-4
1.883500E-7	4.933296E-4
1.884000E-7	4.368023E-4
1.884500E-7	3.717102E-4
1.885000E-7	3.031922E-4
1.885500E-7	2.381001E-4
1.886000E-7	1.901375E-4
1.886500E-7	1.678691E-4
1.887000E-7	1.678691E-4
1.887500E-7	2.021281E-4
1.888000E-7	2.672202E-4
1.888500E-7	3.545807E-4
1.889000E-7	4.676354E-4
1.889500E-7	5.943937E-4
1.890000E-7	7.143002E-4
1.890500E-7	8.307808E-4
1.891000E-7	9.318448E-4
1.891500E-7	1.003789E-3
1.892000E-7	1.051751E-3
1.892500E-7	1.079159E-3
1.893000E-7	1.077446E-3
1.893500E-7	1.044900E-3
1.894000E-7	9.935110E-4
1.894500E-7	9.386966E-4
1.895000E-7	8.770304E-4
1.895500E-7	8.085124E-4
1.896000E-7	7.417074E-4
1.896500E-7	6.697635E-4
1.897000E-7	5.943937E-4
1.897500E-7	5.138850E-4
1.898000E-7	4.248116E-4
1.898500E-7	3.511548E-4
1.899000E-7	3.049051E-4
1.899500E-7	2.637943E-4
1.900000E-7	2.243965E-4
1.900500E-7	2.106929E-4
1.901000E-7	2.261094E-4
1.901500E-7	2.329612E-4
1.902000E-7	2.346742E-4
1.902500E-7	2.518037E-4
1.903000E-7	2.826368E-4
1.903500E-7	3.117569E-4
1.904000E-7	3.305994E-4
1.904500E-7	3.443030E-4
1.905000E-7	3.648584E-4
1.905500E-7	3.854138E-4
1.906000E-7	4.008303E-4
1.906500E-7	4.282375E-4
1.907000E-7	4.659224E-4
1.907500E-7	5.224498E-4
1.908000E-7	5.961066E-4
1.908500E-7	6.697635E-4
1.909000E-7	7.382815E-4
1.909500E-7	8.050865E-4
1.910000E-7	8.564750E-4
1.910500E-7	8.838822E-4
1.911000E-7	8.941599E-4
1.911500E-7	8.975858E-4
1.912000E-7	8.958729E-4
1.912500E-7	8.753175E-4
1.913000E-7	8.444844E-4
1.913500E-7	8.342067E-4
1.914000E-7	8.256419E-4
1.914500E-7	7.999477E-4
1.915000E-7	7.793923E-4
1.915500E-7	7.622628E-4
1.916000E-7	7.297167E-4
1.916500E-7	6.988836E-4
1.917000E-7	6.714764E-4
1.917500E-7	6.303656E-4
1.918000E-7	5.943937E-4
1.918500E-7	5.858289E-4
1.919000E-7	5.875419E-4
1.919500E-7	5.961066E-4
1.920000E-7	6.269397E-4
1.920500E-7	6.714764E-4
1.921000E-7	6.988836E-4
1.921500E-7	7.091613E-4
1.922000E-7	7.228649E-4
1.922500E-7	7.245779E-4
1.923000E-7	6.903189E-4
1.923500E-7	6.337915E-4
1.924000E-7	5.669865E-4
1.924500E-7	4.813390E-4
1.925000E-7	4.128210E-4
1.925500E-7	3.734231E-4
1.926000E-7	3.168958E-4
1.926500E-7	2.518037E-4
1.927000E-7	2.175447E-4
1.927500E-7	1.867116E-4
1.928000E-7	1.507396E-4
1.928500E-7	1.490267E-4
1.929000E-7	1.867116E-4
1.929500E-7	2.226835E-4
1.930000E-7	2.637943E-4
1.930500E-7	3.357382E-4
1.931000E-7	4.230987E-4
1.931500E-7	5.207368E-4
1.932000E-7	6.543469E-4
1.932500E-7	8.205031E-4
1.933000E-7	9.746686E-4
1.933500E-7	1.115130E-3
1.934000E-7	1.255592E-3
1.934500E-7	1.348092E-3
1.935000E-7	1.365221E-3
1.935500E-7	1.341240E-3
1.936000E-7	1.269296E-3
1.936500E-7	1.139112E-3
1.937000E-7	9.883722E-4
1.937500E-7	8.461973E-4
1.938000E-7	6.954577E-4
1.938500E-7	5.549958E-4
1.939000E-7	4.487929E-4
1.939500E-7	3.665713E-4
1.940000E-7	3.049051E-4
1.940500E-7	2.792109E-4
1.941000E-7	2.877756E-4
1.941500E-7	3.168958E-4
1.942000E-7	3.648584E-4
1.942500E-7	4.042562E-4
1.943000E-7	4.385152E-4
1.943500E-7	4.796260E-4
1.944000E-7	5.053203E-4
1.944500E-7	5.104591E-4
1.945000E-7	5.155980E-4
1.945500E-7	5.190239E-4
1.946000E-7	5.241627E-4
1.946500E-7	5.293016E-4
1.947000E-7	5.378663E-4
1.947500E-7	5.515699E-4
1.948000E-7	5.635606E-4
1.948500E-7	5.549958E-4
1.949000E-7	5.310145E-4
1.949500E-7	5.087462E-4
1.950000E-7	4.744872E-4
1.950500E-7	4.350893E-4
1.951000E-7	3.905526E-4
1.951500E-7	3.340253E-4
1.952000E-7	2.826368E-4
1.952500E-7	2.552296E-4
1.953000E-7	2.535166E-4
1.953500E-7	2.672202E-4
1.954000E-7	3.100440E-4
1.954500E-7	3.819879E-4
1.955000E-7	4.573577E-4
1.955500E-7	5.121721E-4
1.956000E-7	5.498570E-4
1.956500E-7	5.772642E-4
1.957000E-7	5.824030E-4
1.957500E-7	5.532829E-4
1.958000E-7	4.950426E-4
1.958500E-7	4.145339E-4
1.959000E-7	3.151828E-4
1.959500E-7	2.226835E-4
1.960000E-7	1.610173E-4
1.960500E-7	1.199065E-4
1.961000E-7	1.096288E-4
1.961500E-7	1.541655E-4
1.962000E-7	2.518037E-4
1.962500E-7	3.665713E-4
1.963000E-7	4.779131E-4
1.963500E-7	5.824030E-4
1.964000E-7	6.766153E-4
1.964500E-7	7.536980E-4
1.965000E-7	8.033736E-4
1.965500E-7	8.187901E-4
1.966000E-7	7.948088E-4
1.966500E-7	7.331426E-4
1.967000E-7	6.526340E-4
1.967500E-7	5.772642E-4
1.968000E-7	5.224498E-4
1.968500E-7	4.984685E-4
1.969000E-7	4.830519E-4
1.969500E-7	4.830519E-4
1.970000E-7	5.293016E-4
1.970500E-7	6.012455E-4
1.971000E-7	6.680505E-4
1.971500E-7	7.417074E-4
1.972000E-7	8.085124E-4
1.972500E-7	8.307808E-4
1.973000E-7	8.307808E-4
1.973500E-7	8.222160E-4
1.974000E-7	7.862441E-4
1.974500E-7	7.554110E-4
1.975000E-7	7.502721E-4
1.975500E-7	7.297167E-4
1.976000E-7	7.005966E-4
1.976500E-7	6.817541E-4
1.977000E-7	6.594858E-4
1.977500E-7	6.423563E-4
1.978000E-7	6.440692E-4
1.978500E-7	6.389304E-4
1.979000E-7	6.132361E-4
1.979500E-7	5.789771E-4
1.980000E-7	5.327275E-4
1.980500E-7	4.744872E-4
1.981000E-7	4.093951E-4
1.981500E-7	3.614325E-4
1.982000E-7	3.425900E-4
1.982500E-7	3.477289E-4
1.983000E-7	3.699972E-4
1.983500E-7	4.008303E-4
1.984000E-7	4.385152E-4
1.984500E-7	4.950426E-4
1.985000E-7	5.618476E-4
1.985500E-7	6.303656E-4
1.986000E-7	6.817541E-4
1.986500E-7	7.108743E-4
1.987000E-7	7.262908E-4
1.987500E-7	7.399944E-4
1.988000E-7	7.245779E-4
1.988500E-7	6.749023E-4
1.989000E-7	6.218009E-4
1.989500E-7	5.686994E-4
1.990000E-7	5.173109E-4
1.990500E-7	4.813390E-4
1.991000E-7	4.470800E-4
1.991500E-7	3.956915E-4
1.992000E-7	3.545807E-4
1.992500E-7	3.254605E-4
1.993000E-7	2.860627E-4
1.993500E-7	2.483778E-4
1.994000E-7	2.295353E-4
1.994500E-7	2.192576E-4
1.995000E-7	2.106929E-4
1.995500E-7	2.243965E-4
1.996000E-7	2.569425E-4
1.996500E-7	2.877756E-4
1.997000E-7	3.168958E-4
1.997500E-7	3.425900E-4
1.998000E-7	3.631454E-4
1.998500E-7	3.785620E-4
1.999000E-7	3.974044E-4
1.999500E-7	4.025433E-4
2.000000E-7	3.905526E-4
2.000500E-7	3.785620E-4
